Specimen choice input : Material,Steel,
Specimen properties : Geometry,Rectangular,
Specimen properties : Width,13,mm
Specimen properties : Thickness,3.58,mm
,,
Time,Extension,Load
(s),(mm),(N)
0,-1.70067,8.96
0.1,-1.6976,11.24
0.2,-1.69658,11.84
0.3,-1.69529,12.97
0.4,-1.69359,14.41
0.5,-1.69214,15.84
0.6,-1.69128,17.00
0.7,-1.69043,18.18
0.8,-1.68966,19.31
0.9,-1.68889,20.51
1,-1.68812,21.73
1.1,-1.68735,23.05
1.2,-1.6865,24.31
1.3,-1.68582,25.65
1.4,-1.68505,26.91
1.5,-1.68428,28.20
1.6,-1.6836,29.45
1.7,-1.68291,30.69
1.8,-1.68223,31.90
1.9,-1.68155,33.14
2,-1.68095,34.42
2.1,-1.68027,35.65
2.2,-1.67958,36.96
2.3,-1.6789,38.21
2.4,-1.6783,39.50
2.5,-1.67754,40.77
2.6,-1.67694,42.04
2.7,-1.67634,43.27
2.8,-1.67566,44.62
2.9,-1.67506,45.79
3,-1.67446,46.97
3.1,-1.67386,48.19
3.2,-1.67335,49.50
3.3,-1.67267,50.73
3.4,-1.67207,52.02
3.5,-1.67147,53.33
3.6,-1.67088,54.52
3.7,-1.67028,55.79
3.8,-1.66968,57.10
3.9,-1.66917,58.37
4,-1.66857,59.62
4.1,-1.66806,60.90
4.2,-1.66746,62.16
4.3,-1.66686,63.39
4.4,-1.66635,64.62
4.5,-1.66575,65.87
4.6,-1.66516,67.03
4.7,-1.66473,68.35
4.8,-1.66413,69.54
4.9,-1.66353,70.85
5,-1.66294,72.09
5.1,-1.66242,73.43
5.2,-1.66183,74.68
5.3,-1.66131,76.00
5.4,-1.66072,77.25
5.5,-1.6602,78.51
5.6,-1.65961,79.74
5.7,-1.65909,81.01
5.8,-1.65858,82.26
5.9,-1.65807,83.46
6,-1.65747,84.66
6.1,-1.65704,85.88
6.2,-1.65645,87.11
6.3,-1.65593,88.42
6.4,-1.65542,89.67
6.5,-1.65482,90.92
6.6,-1.65431,92.19
6.7,-1.6538,93.48
6.8,-1.6532,94.79
6.9,-1.65269,96.00
7,-1.65218,97.32
7.1,-1.65158,98.60
7.2,-1.65115,99.82
7.3,-1.65056,101.09
7.4,-1.65013,102.31
7.5,-1.64953,103.55
7.6,-1.64902,104.77
7.7,-1.64851,106.00
7.8,-1.64799,107.28
7.9,-1.64748,108.53
8,-1.64697,109.85
8.1,-1.64637,111.07
8.2,-1.64586,112.34
8.3,-1.64535,113.60
8.4,-1.64484,114.92
8.5,-1.64432,116.13
8.6,-1.64381,117.44
8.7,-1.6433,118.68
8.8,-1.64279,119.92
8.9,-1.64227,121.16
9,-1.64176,122.41
9.1,-1.64125,123.60
9.2,-1.64074,124.88
9.3,-1.64022,126.12
9.4,-1.63971,127.40
9.5,-1.6392,128.64
9.6,-1.63869,129.95
9.7,-1.63818,131.20
9.8,-1.63758,132.50
9.9,-1.63707,133.78
10,-1.63655,135.01
10.1,-1.63604,136.29
10.2,-1.63553,137.52
10.3,-1.63502,138.80
10.4,-1.6345,140.01
10.5,-1.63391,141.25
10.6,-1.63339,142.48
10.7,-1.63288,143.74
10.8,-1.63237,144.96
10.9,-1.63186,146.21
11,-1.63126,147.47
11.1,-1.63075,148.76
11.2,-1.63015,150.00
11.3,-1.62964,151.33
11.4,-1.62913,152.56
11.5,-1.62861,153.87
11.6,-1.62802,155.11
11.7,-1.6275,156.41
11.8,-1.62699,157.63
11.9,-1.62648,158.89
12,-1.62597,160.10
12.1,-1.62545,161.34
12.2,-1.62494,162.56
12.3,-1.62443,163.77
12.4,-1.62392,165.06
12.5,-1.6234,166.30
12.6,-1.62289,167.54
12.7,-1.62238,168.82
12.8,-1.62187,170.08
12.9,-1.62136,171.34
13,-1.62084,172.63
13.1,-1.62033,173.93
13.2,-1.61982,175.17
13.3,-1.61931,176.48
13.4,-1.61879,177.67
13.5,-1.61828,178.97
13.6,-1.61777,180.18
13.7,-1.61726,181.45
13.8,-1.61683,182.65
13.9,-1.61632,183.90
14,-1.61581,185.15
14.1,-1.61529,186.41
14.2,-1.61487,187.69
14.3,-1.61435,188.97
14.4,-1.61384,190.22
14.5,-1.61333,191.52
14.6,-1.61282,192.76
14.7,-1.61239,194.04
14.8,-1.61188,195.33
14.9,-1.61137,196.58
15,-1.61085,197.80
15.1,-1.61034,199.05
15.2,-1.60992,200.32
15.3,-1.6094,201.54
15.4,-1.60898,202.81
15.5,-1.60846,203.98
15.6,-1.60795,205.25
15.7,-1.60752,206.53
15.8,-1.60701,207.83
15.9,-1.6065,209.04
16,-1.60599,210.34
16.1,-1.60548,211.60
16.2,-1.60505,212.91
16.3,-1.60454,214.13
16.4,-1.60402,215.42
16.5,-1.60351,216.68
16.6,-1.60308,217.97
16.7,-1.60257,219.19
16.8,-1.60215,220.48
16.9,-1.60163,221.64
17,-1.60112,222.91
17.1,-1.60069,224.13
17.2,-1.60018,225.38
17.3,-1.59976,226.63
17.4,-1.59924,227.89
17.5,-1.59873,229.13
17.6,-1.59822,230.42
17.7,-1.59771,231.69
17.8,-1.59728,232.95
17.9,-1.59677,234.23
18,-1.59625,235.49
18.1,-1.59583,236.76
18.2,-1.59532,238.01
18.3,-1.59489,239.28
18.4,-1.59438,240.54
18.5,-1.59386,241.82
18.6,-1.59335,243.01
18.7,-1.59292,244.29
18.8,-1.59241,245.45
18.9,-1.59199,246.73
19,-1.59147,247.96
19.1,-1.59096,249.20
19.2,-1.59053,250.46
19.3,-1.59002,251.69
19.4,-1.58951,252.99
19.5,-1.58908,254.31
19.6,-1.58857,255.53
19.7,-1.58806,256.81
19.8,-1.58755,258.07
19.9,-1.58712,259.36
20,-1.58661,260.62
20.1,-1.58609,261.88
20.2,-1.58558,263.13
20.3,-1.58507,264.39
20.4,-1.58464,265.59
20.5,-1.58413,266.79
20.6,-1.58362,268.08
20.7,-1.58319,269.35
20.8,-1.58268,270.61
20.9,-1.58217,271.89
21,-1.58165,273.13
21.1,-1.58114,274.42
21.2,-1.58063,275.66
21.3,-1.58012,276.93
21.4,-1.57961,278.20
21.5,-1.57918,279.46
21.6,-1.57867,280.75
21.7,-1.57815,281.98
21.8,-1.57764,283.26
21.9,-1.57713,284.44
22,-1.5767,285.73
22.1,-1.57619,286.95
22.2,-1.57568,288.16
22.3,-1.57517,289.41
22.4,-1.57465,290.71
22.5,-1.57414,291.93
22.6,-1.57363,293.24
22.7,-1.5732,294.50
22.8,-1.57269,295.80
22.9,-1.57218,297.06
23,-1.57167,298.32
23.1,-1.57115,299.61
23.2,-1.57064,300.88
23.3,-1.57013,302.09
23.4,-1.56962,303.35
23.5,-1.56919,304.58
23.6,-1.56868,305.84
23.7,-1.56816,307.06
23.8,-1.56765,308.32
23.9,-1.56723,309.51
24,-1.56671,310.76
24.1,-1.5662,312.04
24.2,-1.56569,313.35
24.3,-1.56518,314.60
24.4,-1.56466,315.89
24.5,-1.56415,317.16
24.6,-1.56364,318.44
24.7,-1.56313,319.69
24.8,-1.5627,320.96
24.9,-1.56219,322.18
25,-1.56168,323.47
25.1,-1.56116,324.69
25.2,-1.56074,325.94
25.3,-1.56022,327.13
25.4,-1.55971,328.38
25.5,-1.5592,329.59
25.6,-1.55877,330.84
25.7,-1.55826,332.08
25.8,-1.55775,333.37
25.9,-1.55724,334.66
26,-1.55672,335.93
26.1,-1.55621,337.21
26.2,-1.5557,338.49
26.3,-1.55519,339.73
26.4,-1.55467,341.04
26.5,-1.55416,342.28
26.6,-1.55374,343.51
26.7,-1.55322,344.80
26.8,-1.55271,346.03
26.9,-1.55228,347.27
27,-1.55177,348.54
27.1,-1.55126,349.71
27.2,-1.55075,350.99
27.3,-1.55032,352.26
27.4,-1.54981,353.53
27.5,-1.5493,354.81
27.6,-1.54878,356.06
27.7,-1.54827,357.36
27.8,-1.54776,358.58
27.9,-1.54733,359.89
28,-1.54682,361.14
28.1,-1.54631,362.39
28.2,-1.5458,363.65
28.3,-1.54537,364.89
28.4,-1.54486,366.15
28.5,-1.54434,367.35
28.6,-1.54392,368.57
28.7,-1.5434,369.84
28.8,-1.54289,371.12
28.9,-1.54238,372.35
29,-1.54195,373.64
29.1,-1.54144,374.90
29.2,-1.54093,376.16
29.3,-1.54042,377.41
29.4,-1.53999,378.70
29.5,-1.53948,379.98
29.6,-1.53896,381.25
29.7,-1.53845,382.51
29.8,-1.53794,383.76
29.9,-1.53751,384.98
30,-1.537,386.25
30.1,-1.53657,387.52
30.2,-1.53606,388.72
30.3,-1.53555,389.99
30.4,-1.53512,391.21
30.5,-1.53461,392.45
30.6,-1.5341,393.67
30.7,-1.53367,394.97
30.8,-1.53316,396.26
30.9,-1.53265,397.52
31,-1.53222,398.80
31.1,-1.53171,400.08
31.2,-1.5312,401.38
31.3,-1.53077,402.66
31.4,-1.53026,403.86
31.5,-1.52974,405.12
31.6,-1.52932,406.38
31.7,-1.5288,407.63
31.8,-1.52838,408.85
31.9,-1.52787,410.10
32,-1.52744,411.30
32.1,-1.52701,412.52
32.2,-1.5265,413.74
32.3,-1.52599,415.03
32.4,-1.52556,416.29
32.5,-1.52505,417.56
32.6,-1.52454,418.84
32.7,-1.52411,420.15
32.8,-1.5236,421.37
32.9,-1.52308,422.63
33,-1.52266,423.91
33.1,-1.52215,425.18
33.2,-1.52172,426.45
33.3,-1.52121,427.71
33.4,-1.52078,428.95
33.5,-1.52027,430.23
33.6,-1.51984,431.45
33.7,-1.51941,432.68
33.8,-1.51899,433.90
33.9,-1.51847,435.16
34,-1.51796,436.45
34.1,-1.51753,437.72
34.2,-1.51711,438.96
34.3,-1.5166,440.23
34.4,-1.51617,441.51
34.5,-1.51566,442.75
34.6,-1.51514,444.02
34.7,-1.51472,445.29
34.8,-1.51429,446.56
34.9,-1.51378,447.82
35,-1.51335,449.09
35.1,-1.51284,450.33
35.2,-1.51241,451.57
35.3,-1.51198,452.82
35.4,-1.51147,454.04
35.5,-1.51105,455.27
35.6,-1.51053,456.49
35.7,-1.51011,457.83
35.8,-1.50959,459.03
35.9,-1.50917,460.30
36,-1.50874,461.59
36.1,-1.50823,462.84
36.2,-1.5078,464.14
36.3,-1.50737,465.39
36.4,-1.50686,466.66
36.5,-1.50644,467.93
36.6,-1.50592,469.18
36.7,-1.5055,470.46
36.8,-1.50507,471.74
36.9,-1.50456,472.95
37,-1.50413,474.16
37.1,-1.5037,475.38
37.2,-1.50328,476.67
37.3,-1.50276,477.90
37.4,-1.50234,479.15
37.5,-1.50191,480.36
37.6,-1.5014,481.61
37.7,-1.50097,482.92
37.8,-1.50054,484.20
37.9,-1.50003,485.46
38,-1.4996,486.76
38.1,-1.49918,488.02
38.2,-1.49867,489.29
38.3,-1.49824,490.54
38.4,-1.49781,491.82
38.5,-1.4973,493.07
38.6,-1.49687,494.30
38.7,-1.49645,495.56
38.8,-1.49602,496.82
38.9,-1.49551,498.01
39,-1.49508,499.27
39.1,-1.49465,500.49
39.2,-1.49423,501.69
39.3,-1.49371,502.96
39.4,-1.49329,504.23
39.5,-1.49286,505.48
39.6,-1.49235,506.77
39.7,-1.49192,508.02
39.8,-1.49149,509.27
39.9,-1.49098,510.61
40,-1.49055,511.84
40.1,-1.49013,513.15
40.2,-1.48962,514.39
40.3,-1.48919,515.63
40.4,-1.48876,516.92
40.5,-1.48833,518.14
40.6,-1.48782,519.40
40.7,-1.4874,520.65
40.8,-1.48697,521.87
40.9,-1.48654,523.14
41,-1.48603,524.37
41.1,-1.4856,525.62
41.2,-1.48518,526.88
41.3,-1.48475,528.15
41.4,-1.48424,529.41
41.5,-1.48381,530.71
41.6,-1.48338,531.94
41.7,-1.48287,533.22
41.8,-1.48244,534.52
41.9,-1.48202,535.74
42,-1.48159,537.02
42.1,-1.48108,538.25
42.2,-1.48065,539.50
42.3,-1.48022,540.75
42.4,-1.4798,542.03
42.5,-1.47928,543.27
42.6,-1.47886,544.47
42.7,-1.47843,545.76
42.8,-1.478,546.99
42.9,-1.47749,548.24
43,-1.47706,549.50
43.1,-1.47664,550.75
43.2,-1.47621,552.02
43.3,-1.4757,553.32
43.4,-1.47527,554.60
43.5,-1.47484,555.86
43.6,-1.47442,557.11
43.7,-1.47391,558.36
43.8,-1.47348,559.61
43.9,-1.47305,560.90
44,-1.47254,562.14
44.1,-1.47211,563.40
44.2,-1.47169,564.65
44.3,-1.47126,565.85
44.4,-1.47083,567.11
44.5,-1.47032,568.38
44.6,-1.46989,569.60
44.7,-1.46947,570.90
44.8,-1.46904,572.10
44.9,-1.46853,573.36
45,-1.4681,574.64
45.1,-1.46759,575.89
45.2,-1.46716,577.17
45.3,-1.46673,578.46
45.4,-1.46631,579.72
45.5,-1.46579,581.01
45.6,-1.46537,582.27
45.7,-1.46494,583.53
45.8,-1.46451,584.79
45.9,-1.464,586.03
46,-1.46357,587.26
46.1,-1.46315,588.50
46.2,-1.46272,589.73
46.3,-1.46229,590.97
46.4,-1.46187,592.16
46.5,-1.46135,593.44
46.6,-1.46093,594.67
46.7,-1.4605,595.93
46.8,-1.45999,597.21
46.9,-1.45956,598.51
47,-1.45914,599.78
47.1,-1.45862,601.02
47.2,-1.4582,602.33
47.3,-1.45777,603.57
47.4,-1.45726,604.83
47.5,-1.45683,606.08
47.6,-1.4564,607.36
47.7,-1.45598,608.61
47.8,-1.45546,609.88
47.9,-1.45504,611.10
48,-1.45461,612.33
48.1,-1.45418,613.55
48.2,-1.45376,614.84
48.3,-1.45324,616.12
48.4,-1.45282,617.30
48.5,-1.4523,618.60
48.6,-1.45188,619.85
48.7,-1.45145,621.17
48.8,-1.45094,622.41
48.9,-1.45051,623.69
49,-1.45008,624.93
49.1,-1.44966,626.24
49.2,-1.44915,627.45
49.3,-1.44872,628.73
49.4,-1.44829,630.02
49.5,-1.44778,631.22
49.6,-1.44735,632.46
49.7,-1.44693,633.71
49.8,-1.4465,634.97
49.9,-1.44607,636.17
50,-1.44556,637.49
50.1,-1.44513,638.70
50.2,-1.44471,639.98
50.3,-1.44419,641.20
50.4,-1.44377,642.47
50.5,-1.44334,643.77
50.6,-1.44283,645.04
50.7,-1.4424,646.31
50.8,-1.44189,647.55
50.9,-1.44146,648.82
51,-1.44103,650.09
51.1,-1.44061,651.33
51.2,-1.4401,652.61
51.3,-1.43967,653.86
51.4,-1.43924,655.09
51.5,-1.43873,656.35
51.6,-1.4383,657.60
51.7,-1.43788,658.83
51.8,-1.43745,660.04
51.9,-1.43694,661.31
52,-1.43651,662.55
52.1,-1.43608,663.82
52.2,-1.43557,665.08
52.3,-1.43514,666.35
52.4,-1.43463,667.65
52.5,-1.4342,668.90
52.6,-1.43378,670.17
52.7,-1.43326,671.47
52.8,-1.43284,672.70
52.9,-1.43241,673.99
53,-1.4319,675.23
53.1,-1.43147,676.47
53.2,-1.43096,677.71
53.3,-1.43053,678.93
53.4,-1.43011,680.21
53.5,-1.42968,681.42
53.6,-1.42925,682.61
53.7,-1.42874,683.85
53.8,-1.42831,685.13
53.9,-1.42789,686.42
54,-1.42737,687.67
54.1,-1.42695,688.93
54.2,-1.42643,690.23
54.3,-1.42601,691.47
54.4,-1.42558,692.76
54.5,-1.42507,694.03
54.6,-1.42464,695.29
54.7,-1.42421,696.57
54.8,-1.4237,697.80
54.9,-1.42328,699.07
55,-1.42285,700.30
55.1,-1.42234,701.57
55.2,-1.42191,702.76
55.3,-1.42148,704.05
55.4,-1.42097,705.27
55.5,-1.42054,706.54
55.6,-1.42003,707.79
55.7,-1.4196,709.06
55.8,-1.41909,710.35
55.9,-1.41867,711.62
56,-1.41815,712.84
56.1,-1.41773,714.14
56.2,-1.4173,715.42
56.3,-1.41679,716.65
56.4,-1.41636,717.93
56.5,-1.41593,719.17
56.6,-1.41542,720.44
56.7,-1.41499,721.67
56.8,-1.41448,722.93
56.9,-1.41405,724.14
57,-1.41363,725.38
57.1,-1.41312,726.67
57.2,-1.41269,727.90
57.3,-1.41218,729.15
57.4,-1.41175,730.39
57.5,-1.41132,731.70
57.6,-1.41081,732.98
57.7,-1.41038,734.22
57.8,-1.40987,735.51
57.9,-1.40936,736.76
58,-1.40893,738.02
58.1,-1.4085,739.33
58.2,-1.40799,740.55
58.3,-1.40757,741.76
58.4,-1.40705,743.01
58.5,-1.40663,744.28
58.6,-1.40611,745.50
58.7,-1.40569,746.76
58.8,-1.40526,748.01
58.9,-1.40475,749.25
59,-1.40432,750.52
59.1,-1.40381,751.77
59.2,-1.40338,753.04
59.3,-1.40287,754.27
59.4,-1.40244,755.58
59.5,-1.40193,756.84
59.6,-1.4015,758.13
59.7,-1.40099,759.40
59.8,-1.40056,760.64
59.9,-1.40005,761.89
60,-1.39954,763.16
60.1,-1.39911,764.41
60.2,-1.39869,765.64
60.3,-1.39817,766.90
60.4,-1.39775,768.12
60.5,-1.39732,769.37
60.6,-1.39681,770.53
60.7,-1.39638,771.81
60.8,-1.39587,773.10
60.9,-1.39544,774.33
61,-1.39493,775.60
61.1,-1.3945,776.88
61.2,-1.39399,778.14
61.3,-1.39348,779.44
61.4,-1.39305,780.69
61.5,-1.39254,781.96
61.6,-1.39211,783.22
61.7,-1.3916,784.52
61.8,-1.39117,785.75
61.9,-1.39066,786.99
62,-1.39023,788.26
62.1,-1.38972,789.48
62.2,-1.38929,790.74
62.3,-1.38878,791.93
62.4,-1.38836,793.20
62.5,-1.38784,794.50
62.6,-1.38742,795.73
62.7,-1.3869,797.01
62.8,-1.38648,798.30
62.9,-1.38596,799.56
63,-1.38554,800.83
63.1,-1.38503,802.07
63.2,-1.38451,803.35
63.3,-1.38409,804.58
63.4,-1.38357,805.86
63.5,-1.38315,807.14
63.6,-1.38272,808.40
63.7,-1.38221,809.61
63.8,-1.38178,810.85
63.9,-1.38127,812.06
64,-1.38084,813.32
64.1,-1.38033,814.57
64.2,-1.3799,815.85
64.3,-1.37948,817.10
64.4,-1.37896,818.34
64.5,-1.37845,819.64
64.6,-1.37802,820.87
64.7,-1.37751,822.16
64.8,-1.377,823.43
64.9,-1.37657,824.69
65,-1.37606,825.94
65.1,-1.37563,827.24
65.2,-1.37521,828.48
65.3,-1.37469,829.72
65.4,-1.37427,830.97
65.5,-1.37376,832.18
65.6,-1.37333,833.43
65.7,-1.37282,834.69
65.8,-1.37239,835.96
65.9,-1.37188,837.16
66,-1.37145,838.41
66.1,-1.37094,839.67
66.2,-1.37043,840.95
66.3,-1.37,842.24
66.4,-1.36949,843.51
66.5,-1.36906,844.79
66.6,-1.36855,846.08
66.7,-1.36804,847.35
66.8,-1.36752,848.57
66.9,-1.3671,849.82
67,-1.36667,851.08
67.1,-1.36616,852.34
67.2,-1.36573,853.57
67.3,-1.36522,854.80
67.4,-1.36479,856.06
67.5,-1.36428,857.25
67.6,-1.36385,858.47
67.7,-1.36334,859.78
67.8,-1.36283,861.03
67.9,-1.3624,862.26
68,-1.36189,863.55
68.1,-1.36138,864.82
68.2,-1.36095,866.08
68.3,-1.36044,867.38
68.4,-1.35992,868.66
68.5,-1.3595,869.94
68.6,-1.35898,871.20
68.7,-1.35847,872.44
68.8,-1.35805,873.68
68.9,-1.35753,874.93
69,-1.35711,876.14
69.1,-1.35659,877.39
69.2,-1.35608,878.67
69.3,-1.35566,879.90
69.4,-1.35514,881.20
69.5,-1.35463,882.40
69.6,-1.3542,883.74
69.7,-1.35369,884.96
69.8,-1.35318,886.26
69.9,-1.35267,887.50
70,-1.35224,888.80
70.1,-1.35173,890.05
70.2,-1.35122,891.29
70.3,-1.3507,892.57
70.4,-1.35019,893.78
70.5,-1.34976,895.07
70.6,-1.34925,896.25
70.7,-1.34882,897.57
70.8,-1.34831,898.73
70.9,-1.3478,899.99
71,-1.34729,901.26
71.1,-1.34678,902.51
71.2,-1.34635,903.79
71.3,-1.34584,905.05
71.4,-1.34532,906.31
71.5,-1.34481,907.61
71.6,-1.3443,908.88
71.7,-1.34379,910.13
71.8,-1.34336,911.43
71.9,-1.34276,912.67
72,-1.34234,913.90
72.1,-1.34182,915.16
72.2,-1.34131,916.40
72.3,-1.3408,917.63
72.4,-1.34029,918.86
72.5,-1.33977,920.12
72.6,-1.33935,921.37
72.7,-1.33884,922.63
72.8,-1.33832,923.86
72.9,-1.33781,925.15
73,-1.3373,926.42
73.1,-1.33679,927.70
73.2,-1.33619,928.97
73.3,-1.33576,930.24
73.4,-1.33516,931.52
73.5,-1.33465,932.77
73.6,-1.33422,934.04
73.7,-1.33371,935.26
73.8,-1.3332,936.51
73.9,-1.33269,937.72
74,-1.33218,938.95
74.1,-1.33166,940.16
74.2,-1.33115,941.40
74.3,-1.33064,942.68
74.4,-1.33013,943.91
74.5,-1.32961,945.20
74.6,-1.32902,946.47
74.7,-1.32859,947.75
74.8,-1.32799,949.02
74.9,-1.32748,950.33
75,-1.32697,951.58
75.1,-1.32646,952.87
75.2,-1.32586,954.12
75.3,-1.32535,955.34
75.4,-1.32483,956.60
75.5,-1.32432,957.74
75.6,-1.32381,959.02
75.7,-1.32321,960.29
75.8,-1.32278,961.59
75.9,-1.32219,962.82
76,-1.32167,964.08
76.1,-1.32108,965.37
76.2,-1.32056,966.64
76.3,-1.32005,967.91
76.4,-1.31945,969.17
76.5,-1.31894,970.46
76.6,-1.31843,971.72
76.7,-1.31792,973.02
76.8,-1.31732,974.22
76.9,-1.31681,975.43
77,-1.3163,976.66
77.1,-1.3157,977.89
77.2,-1.31519,979.17
77.3,-1.31459,980.39
77.4,-1.31408,981.69
77.5,-1.31356,982.94
77.6,-1.31297,984.22
77.7,-1.31237,985.45
77.8,-1.31186,986.79
77.9,-1.31126,988.03
78,-1.31075,989.29
78.1,-1.31023,990.58
78.2,-1.30964,991.79
78.3,-1.30912,993.07
78.4,-1.30853,994.25
78.5,-1.30801,995.51
78.6,-1.30742,996.75
78.7,-1.3069,997.98
78.8,-1.30631,999.19
78.9,-1.30571,1000.49
79,-1.30511,1001.77
79.1,-1.3046,1003.04
79.2,-1.304,1004.35
79.3,-1.3034,1005.59
79.4,-1.30289,1006.89
79.5,-1.30229,1008.15
79.6,-1.30178,1009.42
79.7,-1.30118,1010.65
79.8,-1.30059,1011.90
79.9,-1.29999,1013.10
80,-1.29948,1014.33
80.1,-1.29888,1015.55
80.2,-1.29828,1016.73
80.3,-1.29777,1018.04
80.4,-1.29717,1019.29
80.5,-1.29657,1020.59
80.6,-1.29597,1021.88
80.7,-1.29538,1023.17
80.8,-1.29478,1024.45
80.9,-1.29418,1025.71
81,-1.29358,1026.96
81.1,-1.29299,1028.21
81.2,-1.29247,1029.48
81.3,-1.29188,1030.63
81.4,-1.29128,1031.92
81.5,-1.29068,1033.17
81.6,-1.29008,1034.44
81.7,-1.28949,1035.68
81.8,-1.28889,1036.97
81.9,-1.28829,1038.25
82,-1.28761,1039.49
82.1,-1.2871,1040.79
82.2,-1.28641,1042.03
82.3,-1.28581,1043.32
82.4,-1.28522,1044.56
82.5,-1.28462,1045.83
82.6,-1.28402,1047.00
82.7,-1.28342,1048.25
82.8,-1.28283,1049.52
82.9,-1.28223,1050.80
83,-1.28155,1052.04
83.1,-1.28095,1053.28
83.2,-1.28035,1054.58
83.3,-1.27967,1055.85
83.4,-1.27907,1057.11
83.5,-1.27839,1058.41
83.6,-1.27779,1059.68
83.7,-1.27719,1060.93
83.8,-1.27651,1062.13
83.9,-1.27591,1063.38
84,-1.27523,1064.59
84.1,-1.27472,1065.86
84.2,-1.27403,1067.09
84.3,-1.27335,1068.30
84.4,-1.27275,1069.61
84.5,-1.27207,1070.88
84.6,-1.27147,1072.23
84.7,-1.27079,1073.45
84.8,-1.27019,1074.76
84.9,-1.26951,1075.97
85,-1.26882,1077.25
85.1,-1.26823,1078.50
85.2,-1.26754,1079.70
85.3,-1.26695,1080.94
85.4,-1.26626,1082.09
85.5,-1.26567,1083.35
85.6,-1.26498,1084.56
85.7,-1.2643,1085.90
85.8,-1.26362,1087.18
85.9,-1.26293,1088.48
86,-1.26225,1089.79
86.1,-1.26157,1091.03
86.2,-1.26097,1092.31
86.3,-1.26029,1093.54
86.4,-1.2596,1094.79
86.5,-1.25892,1095.94
86.6,-1.25824,1097.22
86.7,-1.25755,1098.48
86.8,-1.25696,1099.75
86.9,-1.25619,1101.04
87,-1.2555,1102.30
87.1,-1.25482,1103.61
87.2,-1.25405,1104.87
87.3,-1.25346,1106.17
87.4,-1.25269,1107.36
87.5,-1.25209,1108.64
87.6,-1.25132,1109.79
87.7,-1.25064,1111.08
87.8,-1.24996,1112.34
87.9,-1.24919,1113.55
88,-1.2485,1114.83
88.1,-1.24774,1116.08
88.2,-1.24705,1117.42
88.3,-1.24628,1118.66
88.4,-1.24569,1119.98
88.5,-1.24492,1121.23
88.6,-1.24415,1122.47
88.7,-1.24347,1123.69
88.8,-1.2427,1124.89
88.9,-1.2421,1126.17
89,-1.24133,1127.35
89.1,-1.24065,1128.63
89.2,-1.23988,1129.94
89.3,-1.23911,1131.22
89.4,-1.23834,1132.53
89.5,-1.23758,1133.79
89.6,-1.23689,1135.07
89.7,-1.23604,1136.26
89.8,-1.23536,1137.51
89.9,-1.23459,1138.68
90,-1.2339,1139.93
90.1,-1.23314,1141.10
90.2,-1.23245,1142.39
90.3,-1.23168,1143.69
90.4,-1.23083,1144.96
90.5,-1.23015,1146.30
90.6,-1.22929,1147.57
90.7,-1.22853,1148.84
90.8,-1.22776,1150.08
90.9,-1.22699,1151.30
91,-1.22622,1152.51
91.1,-1.22545,1153.79
91.2,-1.22468,1155.06
91.3,-1.22391,1156.29
91.4,-1.22315,1157.61
91.5,-1.22229,1158.86
91.6,-1.22152,1160.21
91.7,-1.22067,1161.43
91.8,-1.2199,1162.67
91.9,-1.21913,1163.87
92,-1.21828,1165.06
92.1,-1.21751,1166.33
92.2,-1.21666,1167.54
92.3,-1.21589,1168.87
92.4,-1.21504,1170.13
92.5,-1.21427,1171.48
92.6,-1.21341,1172.72
92.7,-1.21264,1174.05
92.8,-1.21171,1175.24
92.9,-1.21094,1176.48
93,-1.21008,1177.68
93.1,-1.20931,1178.87
93.2,-1.20846,1180.13
93.3,-1.20761,1181.38
93.4,-1.20675,1182.77
93.5,-1.2059,1184.02
93.6,-1.20505,1185.37
93.7,-1.20419,1186.58
93.8,-1.20334,1187.79
93.9,-1.20248,1189.01
94,-1.20163,1190.16
94.1,-1.20086,1191.37
94.2,-1.19992,1192.62
94.3,-1.19907,1193.96
94.4,-1.19813,1195.19
94.5,-1.19728,1196.57
94.6,-1.19642,1197.85
94.7,-1.19548,1199.06
94.8,-1.19463,1200.37
94.9,-1.19369,1201.41
95,-1.19292,1202.74
95.1,-1.1919,1203.96
95.2,-1.19104,1205.33
95.3,-1.1901,1206.60
95.4,-1.18916,1207.89
95.5,-1.18831,1209.19
95.6,-1.18737,1210.40
95.7,-1.18652,1211.58
95.8,-1.18558,1212.78
95.9,-1.18464,1214.04
96,-1.1837,1215.31
96.1,-1.18285,1216.65
96.2,-1.18182,1217.90
96.3,-1.18088,1219.24
96.4,-1.17994,1220.54
96.5,-1.17901,1221.70
96.6,-1.17807,1222.94
96.7,-1.17713,1224.12
96.8,-1.17627,1225.37
96.9,-1.17525,1226.57
97,-1.17431,1227.92
97.1,-1.17328,1229.26
97.2,-1.17235,1230.56
97.3,-1.17132,1231.82
97.4,-1.17038,1232.98
97.5,-1.16944,1234.20
97.6,-1.1685,1235.32
97.7,-1.16756,1236.58
97.8,-1.16645,1237.86
97.9,-1.16552,1239.23
98,-1.16449,1240.53
98.1,-1.16347,1241.80
98.2,-1.16253,1243.10
98.3,-1.1615,1244.27
98.4,-1.16048,1245.49
98.5,-1.15945,1246.71
98.6,-1.15851,1248.05
98.7,-1.1574,1249.29
98.8,-1.15638,1250.65
98.9,-1.15535,1251.89
99,-1.15433,1253.11
99.1,-1.15339,1254.28
99.2,-1.15228,1255.45
99.3,-1.15134,1256.80
99.4,-1.15023,1258.04
99.5,-1.14921,1259.44
99.6,-1.14801,1260.70
99.7,-1.14699,1262.01
99.8,-1.14596,1263.21
99.9,-1.14494,1264.34
100,-1.14391,1265.57
100.1,-1.1428,1266.77
100.2,-1.14169,1268.16
100.3,-1.14058,1269.45
100.4,-1.13947,1270.78
100.5,-1.13845,1272.00
100.6,-1.13734,1273.19
100.7,-1.13632,1274.27
100.8,-1.13521,1275.48
100.9,-1.13418,1276.79
101,-1.13299,1278.11
101.1,-1.13188,1279.51
101.2,-1.13068,1280.72
101.3,-1.12966,1282.01
101.4,-1.12846,1283.09
101.5,-1.12744,1284.41
101.6,-1.12624,1285.67
101.7,-1.12513,1287.03
101.8,-1.12385,1288.30
101.9,-1.12274,1289.60
102,-1.12172,1290.78
102.1,-1.12052,1291.93
102.2,-1.11941,1293.20
102.3,-1.11813,1294.42
102.4,-1.11702,1295.84
102.5,-1.11574,1297.11
102.6,-1.11463,1298.42
102.7,-1.11343,1299.61
102.8,-1.11224,1300.78
102.9,-1.11113,1302.00
103,-1.10993,1303.24
103.1,-1.10874,1304.64
103.2,-1.10746,1305.94
103.3,-1.10626,1307.25
103.4,-1.10507,1308.37
103.5,-1.10387,1309.50
103.6,-1.10268,1310.66
103.7,-1.10148,1311.96
103.8,-1.1002,1313.36
103.9,-1.09892,1314.64
104,-1.09772,1315.98
104.1,-1.09644,1317.14
104.2,-1.09525,1318.28
104.3,-1.09397,1319.58
104.4,-1.09269,1320.89
104.5,-1.09141,1322.26
104.6,-1.09004,1323.49
104.7,-1.08893,1324.76
104.8,-1.08756,1325.84
104.9,-1.08637,1327.15
105,-1.08509,1328.40
105.1,-1.08372,1329.78
105.2,-1.08244,1331.13
105.3,-1.08107,1332.29
105.4,-1.07979,1333.48
105.5,-1.07851,1334.56
105.6,-1.07723,1335.95
105.7,-1.07578,1337.29
105.8,-1.0745,1338.68
105.9,-1.07313,1339.87
106,-1.07185,1340.99
106.1,-1.07057,1342.07
106.2,-1.06921,1343.34
106.3,-1.06784,1344.73
106.4,-1.06639,1346.05
106.5,-1.06511,1347.39
106.6,-1.06366,1348.51
106.7,-1.06238,1349.68
106.8,-1.06101,1351.00
106.9,-1.05956,1352.33
107,-1.05819,1353.72
107.1,-1.05674,1354.84
107.2,-1.05538,1356.06
107.3,-1.05392,1357.24
107.4,-1.05256,1358.59
107.5,-1.05102,1359.92
107.6,-1.04957,1361.25
107.7,-1.0482,1362.42
107.8,-1.04675,1363.53
107.9,-1.04539,1364.74
108,-1.04385,1366.09
108.1,-1.0424,1367.57
108.2,-1.04086,1368.76
108.3,-1.03949,1369.94
108.4,-1.03804,1370.91
108.5,-1.03659,1372.21
108.6,-1.03506,1373.62
108.7,-1.03352,1374.98
108.8,-1.03207,1376.28
108.9,-1.03053,1377.27
109,-1.02916,1378.61
109.1,-1.02754,1379.94
109.2,-1.02601,1381.33
109.3,-1.02447,1382.58
109.4,-1.02302,1383.64
109.5,-1.02148,1384.87
109.6,-1.01986,1386.17
109.7,-1.01841,1387.63
109.8,-1.0167,1388.90
109.9,-1.01525,1390.07
110,-1.01362,1391.11
110.1,-1.01217,1392.45
110.2,-1.01047,1393.87
110.3,-1.00884,1395.20
110.4,-1.00731,1396.39
110.5,-1.00568,1397.31
110.6,-1.00415,1398.57
110.7,-1.00244,1399.90
110.8,-1.0009,1401.39
110.9,-0.9992,1402.58
111,-0.99766,1403.70
111.1,-0.99595,1404.99
111.2,-0.99433,1406.38
111.3,-0.99262,1407.76
111.4,-0.991,1408.79
111.5,-0.98938,1410.03
111.6,-0.98758,1411.24
111.7,-0.98596,1412.74
111.8,-0.98417,1414.02
111.9,-0.98263,1415.19
112,-0.98092,1416.26
112.1,-0.97913,1417.57
112.2,-0.97742,1419.07
112.3,-0.97563,1420.35
112.4,-0.97401,1421.44
112.5,-0.9723,1422.39
112.6,-0.97059,1423.79
112.7,-0.9688,1425.20
112.8,-0.96709,1426.51
112.9,-0.9653,1427.55
113,-0.96359,1428.88
113.1,-0.9618,1430.24
113.2,-0.95992,1431.52
113.3,-0.9583,1432.74
113.4,-0.95642,1433.83
113.5,-0.95471,1435.25
113.6,-0.95275,1436.67
113.7,-0.95104,1437.96
113.8,-0.94916,1438.96
113.9,-0.94737,1440.12
114,-0.94549,1441.65
114.1,-0.94353,1442.93
114.2,-0.94182,1444.09
114.3,-0.94003,1444.99
114.4,-0.93815,1446.36
114.5,-0.93619,1447.79
114.6,-0.93431,1449.10
114.7,-0.93251,1450.16
114.8,-0.93064,1451.49
114.9,-0.92867,1452.93
115,-0.92671,1454.18
115.1,-0.92492,1455.25
115.2,-0.92295,1456.41
115.3,-0.92099,1457.93
115.4,-0.91902,1459.34
115.5,-0.91706,1460.39
115.6,-0.91518,1461.49
115.7,-0.91313,1462.87
115.8,-0.91117,1464.38
115.9,-0.90921,1465.40
116,-0.90733,1466.39
116.1,-0.90528,1467.66
116.2,-0.90331,1469.26
116.3,-0.90135,1470.47
116.4,-0.8993,1471.50
116.5,-0.89725,1472.89
116.6,-0.8952,1474.29
116.7,-0.89324,1475.55
116.8,-0.89119,1476.50
116.9,-0.88914,1478.00
117,-0.88701,1479.43
117.1,-0.88504,1480.55
117.2,-0.88299,1481.57
117.3,-0.88077,1482.94
117.4,-0.87873,1484.49
117.5,-0.87659,1485.45
117.6,-0.87471,1486.42
117.7,-0.87249,1487.79
117.8,-0.87036,1489.31
117.9,-0.86831,1490.50
118,-0.86617,1491.60
118.1,-0.86404,1493.05
118.2,-0.86182,1494.37
118.3,-0.85977,1495.46
118.4,-0.85755,1496.65
118.5,-0.85542,1498.25
118.6,-0.85311,1499.49
118.7,-0.85106,1500.46
118.8,-0.84876,1501.73
118.9,-0.84645,1503.27
119,-0.84432,1504.47
119.1,-0.84218,1505.29
119.2,-0.83996,1506.72
119.3,-0.83766,1508.15
119.4,-0.83552,1509.34
119.5,-0.83322,1510.44
119.6,-0.831,1511.95
119.7,-0.82869,1513.28
119.8,-0.82647,1514.24
119.9,-0.82417,1515.66
120,-0.82169,1517.07
120.1,-0.81956,1518.24
120.2,-0.81725,1519.19
120.3,-0.81486,1520.83
120.4,-0.81247,1522.08
120.5,-0.81034,1522.90
120.6,-0.80803,1524.14
120.7,-0.80556,1525.73
120.8,-0.80334,1526.96
120.9,-0.80086,1528.02
121,-0.79847,1529.59
121.1,-0.79599,1530.83
121.2,-0.79377,1531.89
121.3,-0.79121,1533.19
121.4,-0.78882,1534.68
121.5,-0.78643,1535.77
121.6,-0.78404,1536.84
121.7,-0.78148,1538.51
121.8,-0.77909,1539.58
121.9,-0.77687,1540.48
122,-0.77431,1541.91
122.1,-0.77183,1543.42
122.2,-0.76935,1544.35
122.3,-0.76688,1545.83
122.4,-0.76432,1547.26
122.5,-0.76184,1548.16
122.6,-0.75936,1549.50
122.7,-0.75672,1551.03
122.8,-0.75433,1552.19
122.9,-0.75177,1553.12
123,-0.74912,1554.76
123.1,-0.74656,1555.95
123.2,-0.74417,1556.72
123.3,-0.74152,1558.21
123.4,-0.73887,1559.65
123.5,-0.7364,1560.74
123.6,-0.73367,1562.11
123.7,-0.7311,1563.61
123.8,-0.72846,1564.45
123.9,-0.72581,1565.93
124,-0.72316,1567.36
124.1,-0.7206,1568.34
124.2,-0.71787,1569.68
124.3,-0.71514,1571.15
124.4,-0.71275,1571.98
124.5,-0.70993,1573.16
124.6,-0.70728,1574.79
124.7,-0.70455,1575.76
124.8,-0.7019,1577.17
124.9,-0.69909,1578.59
125,-0.69644,1579.55
125.1,-0.69371,1580.97
125.2,-0.69081,1582.44
125.3,-0.68824,1583.45
125.4,-0.68534,1584.66
125.5,-0.68261,1586.28
125.6,-0.67988,1586.93
125.7,-0.67714,1588.27
125.8,-0.67424,1589.85
125.9,-0.67151,1590.84
126,-0.66869,1592.34
126.1,-0.6657,1593.68
126.2,-0.66306,1594.69
126.3,-0.65998,1596.09
126.4,-0.65725,1597.49
126.5,-0.65443,1598.38
126.6,-0.65145,1600.05
126.7,-0.64863,1601.14
126.8,-0.64581,1601.93
126.9,-0.64282,1603.59
127,-0.63992,1604.68
127.1,-0.6371,1606.06
127.2,-0.63403,1607.53
127.3,-0.63121,1608.57
127.4,-0.62805,1609.89
127.5,-0.62515,1611.34
127.6,-0.62225,1612.20
127.7,-0.61917,1613.69
127.8,-0.61627,1615.01
127.9,-0.61328,1615.73
128,-0.61029,1617.47
128.1,-0.60722,1618.53
128.2,-0.60423,1619.87
128.3,-0.60116,1621.36
128.4,-0.59808,1622.26
128.5,-0.59509,1623.84
128.6,-0.59194,1625.05
128.7,-0.58903,1626.09
128.8,-0.5857,1627.66
128.9,-0.58289,1628.72
129,-0.57973,1629.64
129.1,-0.57657,1631.28
129.2,-0.57358,1632.31
129.3,-0.57025,1633.79
129.4,-0.56726,1635.02
129.5,-0.56402,1636.11
129.6,-0.56086,1637.77
129.7,-0.55778,1638.62
129.8,-0.55454,1640.13
129.9,-0.5513,1641.43
130,-0.54831,1642.15
130.1,-0.54506,1643.82
130.2,-0.54182,1644.85
130.3,-0.53857,1646.32
130.4,-0.53524,1647.60
130.5,-0.53217,1648.70
130.6,-0.52876,1650.27
130.7,-0.5256,1651.34
130.8,-0.52227,1652.61
130.9,-0.51894,1653.96
131,-0.51586,1654.74
131.1,-0.51245,1656.29
131.2,-0.50929,1657.53
131.3,-0.50579,1658.86
131.4,-0.50263,1660.15
131.5,-0.4993,1661.24
131.6,-0.4958,1662.85
131.7,-0.49255,1663.80
131.8,-0.48905,1665.19
131.9,-0.48589,1666.52
132,-0.48248,1667.27
132.1,-0.47906,1669.04
132.2,-0.47565,1669.94
132.3,-0.47223,1671.57
132.4,-0.4689,1672.59
132.5,-0.4654,1673.89
132.6,-0.46199,1675.48
132.7,-0.45857,1676.29
132.8,-0.45507,1678.02
132.9,-0.45166,1678.58
133,-0.44824,1680.09
133.1,-0.44483,1681.42
133.2,-0.44124,1682.72
133.3,-0.43783,1684.11
133.4,-0.43424,1685.05
133.5,-0.43065,1686.79
133.6,-0.42715,1687.57
133.7,-0.42365,1689.26
133.8,-0.42015,1690.20
133.9,-0.41665,1691.34
134,-0.41307,1692.85
134.1,-0.40948,1693.84
134.2,-0.40589,1695.48
134.3,-0.40231,1696.38
134.4,-0.39864,1698.07
134.5,-0.39514,1698.91
134.6,-0.39146,1700.47
134.7,-0.38788,1701.53
134.8,-0.38438,1702.56
134.9,-0.38062,1704.15
135,-0.37704,1705.23
135.1,-0.37336,1706.77
135.2,-0.36969,1707.66
135.3,-0.36594,1709.38
135.4,-0.36227,1710.17
135.5,-0.35851,1711.86
135.6,-0.35484,1712.73
135.7,-0.35125,1713.93
135.8,-0.34749,1715.38
135.9,-0.34374,1716.55
136,-0.34007,1718.04
136.1,-0.33622,1719.01
136.2,-0.33238,1720.71
136.3,-0.32863,1721.44
136.4,-0.32478,1723.28
136.5,-0.32111,1723.82
136.6,-0.31736,1725.41
136.7,-0.31368,1726.57
136.8,-0.30967,1728.02
136.9,-0.306,1729.15
137,-0.30199,1730.56
137.1,-0.29832,1731.81
137.2,-0.29422,1732.96
137.3,-0.29063,1734.39
137.4,-0.28679,1735.17
137.5,-0.28286,1736.80
137.6,-0.27911,1737.93
137.7,-0.27509,1739.37
137.8,-0.27142,1740.42
137.9,-0.26732,1742.01
138,-0.26357,1742.90
138.1,-0.25947,1744.65
138.2,-0.2558,1745.19
138.3,-0.25178,1746.88
138.4,-0.24786,1747.84
138.5,-0.24393,1749.57
138.6,-0.23992,1750.28
138.7,-0.23599,1752.10
138.8,-0.23198,1752.90
138.9,-0.22796,1754.60
139,-0.22412,1755.38
139.1,-0.22011,1756.77
139.2,-0.21618,1758.00
139.3,-0.212,1759.41
139.4,-0.20824,1760.58
139.5,-0.20389,1762.01
139.6,-0.20013,1763.10
139.7,-0.19586,1764.58
139.8,-0.19202,1765.45
139.9,-0.18792,1766.74
140,-0.18382,1767.93
140.1,-0.17981,1769.49
140.2,-0.17571,1770.50
140.3,-0.17153,1772.09
140.4,-0.16743,1773.15
140.5,-0.16316,1774.60
140.6,-0.15923,1775.49
140.7,-0.15496,1776.76
140.8,-0.15112,1778.07
140.9,-0.14677,1779.50
141,-0.14275,1780.56
141.1,-0.1384,1782.23
141.2,-0.1343,1783.06
141.3,-0.13003,1784.80
141.4,-0.12602,1785.30
141.5,-0.12175,1787.01
141.6,-0.11757,1788.02
141.7,-0.11338,1789.76
141.8,-0.10911,1790.60
141.9,-0.10476,1792.29
142,-0.10066,1793.15
142.1,-0.09614,1794.78
142.2,-0.09221,1795.42
142.3,-0.08786,1797.07
142.4,-0.08376,1798.24
142.5,-0.07932,1799.71
142.6,-0.07505,1800.80
142.7,-0.07078,1802.27
142.8,-0.06634,1803.32
142.9,-0.06233,1804.67
143,-0.05789,1805.57
143.1,-0.0537,1806.96
143.2,-0.04918,1808.44
143.3,-0.04499,1809.51
143.4,-0.04047,1811.15
143.5,-0.0362,1812.01
143.6,-0.03185,1813.74
143.7,-0.02758,1814.12
143.8,-0.02322,1816.01
143.9,-0.01878,1816.96
144,-0.01451,1818.65
144.1,-0.01007,1819.63
144.2,-0.00572,1821.08
144.3,-0.0012,1822.25
144.4,0.00307,1823.24
144.5,0.00743,1824.51
144.6,0.01195,1825.67
144.7,0.01639,1827.41
144.8,0.02083,1828.25
144.9,0.02536,1829.97
145,0.0298,1830.81
145.1,0.03432,1832.43
145.2,0.03851,1833.13
145.3,0.04312,1834.61
145.4,0.04747,1836.07
145.5,0.05208,1837.15
145.6,0.05661,1838.75
145.7,0.06105,1839.62
145.8,0.06566,1841.29
145.9,0.06993,1841.92
146,0.07462,1843.62
146.1,0.07906,1844.80
146.2,0.08376,1845.98
146.3,0.08828,1847.45
146.4,0.09289,1848.52
146.5,0.0975,1850.09
146.6,0.10186,1850.69
146.7,0.10655,1852.29
146.8,0.11099,1853.42
146.9,0.11569,1854.88
147,0.12021,1856.16
147.1,0.12491,1857.41
147.2,0.12961,1858.81
147.3,0.13405,1859.61
147.4,0.13874,1861.08
147.5,0.14335,1862.20
147.6,0.14805,1863.73
147.7,0.15266,1864.95
147.8,0.15744,1866.23
147.9,0.16205,1867.62
148,0.16666,1868.32
148.1,0.17127,1869.87
148.2,0.17597,1870.95
148.3,0.18066,1872.51
148.4,0.18536,1873.74
148.5,0.19014,1874.96
148.6,0.19492,1876.39
148.7,0.19953,1877.03
148.8,0.20431,1878.73
148.9,0.20909,1879.79
149,0.21388,1881.15
149.1,0.21857,1882.61
149.2,0.22335,1883.66
149.3,0.22822,1885.38
149.4,0.23283,1885.80
149.5,0.23753,1887.59
149.6,0.24256,1888.76
149.7,0.24734,1889.91
149.8,0.2523,1891.54
149.9,0.25708,1892.24
150,0.26186,1894.12
150.1,0.26673,1894.66
150.2,0.27142,1896.24
150.3,0.27646,1897.75
150.4,0.28124,1898.71
150.5,0.28619,1900.39
150.6,0.29123,1901.25
150.7,0.29584,1902.57
150.8,0.30096,1903.76
150.9,0.30566,1904.96
151,0.3107,1906.49
151.1,0.31573,1907.61
151.2,0.32051,1908.95
151.3,0.32572,1910.42
151.4,0.33033,1911.10
151.5,0.33546,1912.68
151.6,0.34049,1914.00
151.7,0.34545,1915.03
151.8,0.35057,1916.72
151.9,0.35552,1917.63
152,0.36056,1918.99
152.1,0.36551,1919.99
152.2,0.37063,1921.13
152.3,0.37558,1922.89
152.4,0.38079,1923.88
152.5,0.38566,1925.15
152.6,0.39095,1926.83
152.7,0.39582,1927.27
152.8,0.40077,1929.03
152.9,0.40606,1930.28
153,0.41093,1931.39
153.1,0.41631,1933.03
153.2,0.42135,1934.09
153.3,0.42639,1935.10
153.4,0.43159,1936.50
153.5,0.43655,1937.65
153.6,0.44175,1939.01
153.7,0.44688,1940.49
153.8,0.45208,1941.28
153.9,0.45712,1943.15
154,0.46224,1943.68
154.1,0.46728,1945.05
154.2,0.47258,1946.71
154.3,0.4777,1947.63
154.4,0.48274,1949.23
154.5,0.4882,1950.58
154.6,0.49298,1951.25
154.7,0.49827,1952.85
154.8,0.50348,1954.08
154.9,0.50852,1955.21
155,0.51398,1956.86
155.1,0.51911,1957.90
155.2,0.52432,1958.84
155.3,0.52944,1960.44
155.4,0.53465,1961.43
155.5,0.53977,1962.86
155.6,0.54515,1964.47
155.7,0.55044,1965.20
155.8,0.55548,1966.84
155.9,0.56086,1967.71
156,0.56581,1968.99
156.1,0.57119,1970.58
156.2,0.57648,1971.76
156.3,0.5816,1972.89
156.4,0.58707,1974.56
156.5,0.59211,1975.19
156.6,0.59749,1976.43
156.7,0.60269,1978.30
156.8,0.60807,1979.08
156.9,0.6132,1980.55
157,0.61874,1982.04
157.1,0.62378,1982.46
157.2,0.62899,1984.12
157.3,0.63454,1985.52
157.4,0.63949,1986.71
157.5,0.64504,1988.22
157.6,0.65034,1989.53
157.7,0.65546,1990.16
157.8,0.66084,1991.81
157.9,0.66622,1993.18
158,0.67159,1994.11
158.1,0.67689,1995.92
158.2,0.68244,1996.84
158.3,0.68748,1997.70
158.4,0.69294,1999.32
158.5,0.69832,2000.54
158.6,0.70353,2001.75
158.7,0.70925,2003.31
158.8,0.71446,2004.51
158.9,0.71983,2005.25
159,0.72513,2006.91
159.1,0.73068,2008.09
159.2,0.73606,2009.29
159.3,0.74152,2011.05
159.4,0.74707,2011.86
159.5,0.75219,2012.90
159.6,0.75774,2014.42
159.7,0.76312,2015.65
159.8,0.76859,2016.78
159.9,0.77414,2018.46
160,0.77969,2019.51
160.1,0.78498,2020.31
160.2,0.79036,2022.02
160.3,0.79599,2023.13
160.4,0.8012,2024.42
160.5,0.80684,2026.08
160.6,0.81247,2027.08
160.7,0.81768,2027.91
160.8,0.82323,2029.44
160.9,0.82869,2030.86
161,0.83424,2031.72
161.1,0.83971,2033.53
161.2,0.84543,2034.62
161.3,0.85064,2035.26
161.4,0.8561,2037.05
161.5,0.86182,2038.33
161.6,0.86711,2039.48
161.7,0.87283,2040.99
161.8,0.87838,2042.21
161.9,0.88376,2042.82
162,0.88931,2044.40
162.1,0.89486,2046.02
162.2,0.9005,2046.81
162.3,0.90579,2048.53
162.4,0.9116,2049.89
162.5,0.9168,2050.36
162.6,0.92235,2051.94
162.7,0.92816,2053.53
162.8,0.93362,2054.67
162.9,0.93926,2055.75
163,0.94481,2057.46
163.1,0.95036,2058.03
163.2,0.95591,2059.26
163.3,0.96137,2061.06
163.4,0.96718,2062.17
163.5,0.97256,2063.31
163.6,0.97828,2064.84
163.7,0.98366,2065.77
163.8,0.98929,2067.03
163.9,0.99493,2068.33
164,1.00048,2070.01
164.1,1.00628,2070.61
164.2,1.01149,2072.18
164.3,1.0173,2073.32
164.4,1.02276,2074.57
164.5,1.02831,2075.85
164.6,1.03412,2077.44
164.7,1.03967,2078.56
164.8,1.04522,2079.38
164.9,1.05068,2081.08
165,1.05657,2082.26
165.1,1.06195,2083.34
165.2,1.06758,2085.02
165.3,1.07348,2086.20
165.4,1.07877,2086.93
165.5,1.08458,2088.36
165.6,1.09012,2089.99
165.7,1.09585,2090.81
165.8,1.10122,2092.34
165.9,1.10712,2093.93
166,1.11258,2094.38
166.1,1.11813,2095.91
166.2,1.12402,2097.45
166.3,1.12957,2098.65
166.4,1.13529,2099.57
166.5,1.14076,2101.31
166.6,1.14648,2102.17
166.7,1.15203,2103.37
166.8,1.15757,2105.01
166.9,1.16355,2106.40
167,1.16893,2107.43
167.1,1.17465,2108.43
167.2,1.18029,2109.96
167.3,1.18609,2111.03
167.4,1.19156,2112.20
167.5,1.19736,2113.96
167.6,1.20317,2114.95
167.7,1.20846,2115.87
167.8,1.21427,2117.39
167.9,1.21982,2118.85
168,1.22562,2119.75
168.1,1.23117,2121.31
168.2,1.23698,2122.82
168.3,1.24261,2123.21
168.4,1.24808,2124.86
168.5,1.25397,2126.35
168.6,1.25952,2127.58
168.7,1.26532,2128.51
168.8,1.27087,2130.30
168.9,1.27659,2131.09
169,1.28223,2132.20
169.1,1.28778,2133.83
169.2,1.29376,2135.22
169.3,1.29922,2136.20
169.4,1.30494,2137.28
169.5,1.31049,2138.82
169.6,1.3163,2139.96
169.7,1.32184,2141.11
169.8,1.32757,2142.92
169.9,1.33346,2143.99
170,1.33866,2144.79
170.1,1.34447,2146.24
170.2,1.35011,2147.79
170.3,1.35591,2148.71
170.4,1.36146,2150.08
170.5,1.36727,2151.72
170.6,1.3729,2152.11
170.7,1.37828,2153.69
170.8,1.38417,2155.27
170.9,1.38972,2156.55
171,1.39544,2157.50
171.1,1.40099,2159.13
171.2,1.40671,2159.97
171.3,1.41226,2161.10
171.4,1.41781,2162.76
171.5,1.42379,2164.15
171.6,1.42917,2165.19
171.7,1.43489,2166.24
171.8,1.44044,2167.76
171.9,1.44624,2168.88
172,1.45171,2170.09
172.1,1.45743,2171.84
172.2,1.46323,2172.83
172.3,1.46844,2173.63
172.4,1.47425,2175.14
172.5,1.4798,2176.67
172.6,1.4856,2177.50
172.7,1.49107,2179.15
172.8,1.49687,2180.54
172.9,1.50225,2180.96
173,1.50772,2182.64
173.1,1.51352,2184.16
173.2,1.5189,2185.36
173.3,1.52454,2186.50
173.4,1.53009,2188.15
173.5,1.53555,2188.66
173.6,1.5411,2190.00
173.7,1.54656,2191.77
173.8,1.55237,2192.82
173.9,1.55766,2194.07
174,1.56347,2195.46
174.1,1.56876,2196.39
174.2,1.57431,2197.59
174.3,1.57986,2199.09
174.4,1.58558,2200.52
174.5,1.59105,2201.35
174.6,1.59634,2203.07
174.7,1.60197,2203.84
174.8,1.60727,2205.30
174.9,1.61299,2206.55
175,1.61845,2208.13
175.1,1.62409,2208.88
175.2,1.62938,2210.33
175.3,1.63493,2211.55
175.4,1.64048,2212.58
175.5,1.64577,2214.17
175.6,1.65167,2215.59
175.7,1.65687,2216.68
175.8,1.66242,2217.72
175.9,1.66789,2219.17
176,1.67344,2220.35
176.1,1.6789,2221.55
176.2,1.68454,2223.34
176.3,1.69026,2224.15
176.4,1.69547,2225.22
176.5,1.70136,2226.67
176.6,1.70699,2228.00
176.7,1.71263,2229.01
176.8,1.71835,2230.64
176.9,1.72432,2232.01
177,1.73004,2232.38
177.1,1.73576,2234.16
177.2,1.74191,2235.65
177.3,1.74789,2236.98
177.4,1.75404,2237.78
177.5,1.75993,2239.21
177.6,1.76616,2240.56
177.7,1.77248,2241.72
177.8,1.77863,2242.95
177.9,1.78511,2244.12
178,1.79118,2245.89
178.1,1.79775,2246.60
178.2,1.80398,2247.96
178.3,1.81047,2249.08
178.4,1.81696,2250.62
178.5,1.82345,2252.25
178.6,1.83028,2252.85
178.7,1.8366,2254.36
178.8,1.84343,2255.37
178.9,1.84992,2256.85
179,1.85675,2258.35
179.1,1.86349,2259.34
179.2,1.87024,2260.71
179.3,1.87724,2261.70
179.4,1.8839,2262.98
179.5,1.8909,2264.07
179.6,1.89756,2265.64
179.7,1.90473,2267.12
179.8,1.91165,2268.51
179.9,1.91873,2269.58
180,1.92565,2270.15
180.1,1.93256,2271.79
180.2,1.93991,2272.93
180.3,1.94674,2274.63
180.4,1.95408,2276.00
180.5,1.961,2276.90
180.6,1.96825,2278.40
180.7,1.97551,2279.43
180.8,1.98251,2280.71
180.9,1.98977,2281.50
181,1.99685,2283.06
181.1,2.00428,2284.39
181.2,2.01145,2285.98
181.3,2.01871,2287.39
181.4,2.02605,2288.10
181.5,2.03323,2289.67
181.6,2.04083,2290.71
181.7,2.04783,2292.11
181.8,2.05525,2292.82
181.9,2.06243,2294.40
182,2.06994,2295.65
182.1,2.07737,2297.08
182.2,2.08463,2298.57
182.3,2.09205,2299.49
182.4,2.0994,2301.15
182.5,2.10717,2302.33
182.6,2.11451,2303.63
182.7,2.12202,2304.27
182.8,2.12945,2305.71
182.9,2.13696,2307.02
183,2.14465,2308.13
183.1,2.15182,2309.38
183.2,2.15959,2310.53
183.3,2.16693,2312.19
183.4,2.17479,2313.60
183.5,2.18221,2315.00
183.6,2.18981,2315.93
183.7,2.1975,2317.30
183.8,2.2051,2318.87
183.9,2.21304,2319.92
184,2.22038,2320.78
184.1,2.22832,2322.09
184.2,2.236,2323.45
184.3,2.24386,2324.71
184.4,2.25137,2325.48
184.5,2.25897,2327.15
184.6,2.267,2328.22
184.7,2.27468,2329.75
184.8,2.28262,2330.55
184.9,2.29039,2331.99
185,2.29824,2333.49
185.1,2.30618,2334.70
185.2,2.31387,2335.94
185.3,2.32207,2336.87
185.4,2.32983,2338.46
185.5,2.33812,2339.79
185.6,2.3458,2341.06
185.7,2.35383,2342.21
185.8,2.36194,2343.48
185.9,2.36988,2345.05
186,2.37807,2346.08
186.1,2.38584,2347.34
186.2,2.39421,2348.43
186.3,2.40232,2350.00
186.4,2.41069,2351.20
186.5,2.41854,2352.18
186.6,2.42691,2353.62
186.7,2.43528,2354.90
186.8,2.44322,2356.29
186.9,2.45167,2357.13
187,2.45978,2358.56
187.1,2.46832,2359.97
187.2,2.47643,2360.96
187.3,2.48471,2362.26
187.4,2.49317,2363.40
187.5,2.50136,2365.00
187.6,2.50999,2365.71
187.7,2.51818,2367.11
187.8,2.52689,2368.48
187.9,2.53526,2369.83
188,2.54354,2370.85
188.1,2.55216,2372.18
188.2,2.56053,2373.81
188.3,2.56941,2374.89
188.4,2.57769,2375.96
188.5,2.58657,2377.36
188.6,2.59519,2378.90
188.7,2.60373,2380.35
188.8,2.61244,2381.06
188.9,2.62089,2382.83
189,2.62986,2383.96
189.1,2.63831,2385.21
189.2,2.64736,2386.03
189.3,2.65633,2387.40
189.4,2.66521,2388.80
189.5,2.67426,2389.47
189.6,2.68296,2391.32
189.7,2.69236,2392.57
189.8,2.70132,2394.13
189.9,2.71029,2395.00
190,2.71942,2396.41
190.1,2.72856,2397.75
190.2,2.73803,2398.34
190.3,2.74717,2399.97
190.4,2.7569,2401.29
190.5,2.76612,2402.99
190.6,2.77552,2403.75
190.7,2.78516,2405.04
190.8,2.79464,2406.45
190.9,2.80454,2407.15
191,2.81394,2408.97
191.1,2.82393,2410.37
191.2,2.83357,2411.55
191.3,2.84339,2412.43
191.4,2.85338,2413.75
191.5,2.86329,2415.57
191.6,2.87336,2416.19
191.7,2.88309,2417.60
191.8,2.89368,2418.70
191.9,2.9035,2419.77
192,2.91366,2421.54
192.1,2.92382,2422.80
192.2,2.93389,2423.71
192.3,2.94448,2425.07
192.4,2.95456,2426.86
192.5,2.96497,2427.58
192.6,2.97539,2428.79
192.7,2.98598,2430.51
192.8,2.99639,2431.60
192.9,3.00664,2432.53
193,3.01748,2433.91
193.1,3.02764,2435.70
193.2,3.03831,2436.29
193.3,3.04907,2437.68
193.4,3.05966,2439.42
193.5,3.07016,2439.90
193.6,3.08083,2441.50
193.7,3.09193,2443.09
193.8,3.10209,2443.94
193.9,3.11328,2445.23
194,3.12421,2446.84
194.1,3.13471,2447.71
194.2,3.14606,2448.74
194.3,3.15682,2450.84
194.4,3.16783,2451.35
194.5,3.17893,2452.70
194.6,3.18995,2454.51
194.7,3.20088,2455.02
194.8,3.21223,2456.75
194.9,3.2235,2458.15
195,3.23443,2458.96
195.1,3.24604,2460.43
195.2,3.25697,2461.69
195.3,3.2685,2462.59
195.4,3.27994,2464.41
195.5,3.29104,2465.24
195.6,3.30282,2466.65
195.7,3.314,2468.25
195.8,3.32587,2468.70
195.9,3.33706,2470.65
196,3.34909,2471.70
196.1,3.36054,2472.69
196.2,3.37223,2474.13
196.3,3.38436,2475.52
196.4,3.39546,2476.62
196.5,3.40775,2477.88
196.6,3.41911,2479.51
196.7,3.43149,2480.15
196.8,3.44318,2481.89
196.9,3.45522,2482.66
197,3.467,2484.35
197.1,3.47913,2485.64
197.2,3.49142,2486.55
197.3,3.50338,2487.97
197.4,3.51576,2489.61
197.5,3.52779,2490.26
197.6,3.54017,2492.12
197.7,3.55264,2492.67
197.8,3.56459,2494.52
197.9,3.57757,2495.35
198,3.58944,2496.72
198.1,3.60259,2497.91
198.2,3.61462,2499.53
198.3,3.62752,2500.47
198.4,3.64015,2501.88
198.5,3.6527,2503.01
198.6,3.66577,2504.11
198.7,3.67823,2506.16
198.8,3.69155,2506.49
198.9,3.70419,2508.35
199,3.71742,2509.12
199.1,3.73048,2510.34
199.2,3.74338,2512.36
199.3,3.75678,2512.68
199.4,3.76959,2514.62
199.5,3.78316,2515.31
199.6,3.79631,2516.83
199.7,3.80972,2518.53
199.8,3.82329,2519.32
199.9,3.83704,2520.75
200,3.85044,2521.70
200.1,3.8641,2523.39
200.2,3.87802,2524.03
200.3,3.89117,2525.84
200.4,3.90551,2527.28
200.5,3.91909,2527.87
200.6,3.93292,2529.67
200.7,3.94692,2530.50
200.8,3.96092,2532.11
200.9,3.9751,2532.86
201,3.98867,2534.65
201.1,4.00344,2536.06
201.2,4.01736,2536.78
201.3,4.0317,2538.51
201.4,4.04605,2539.20
201.5,4.06048,2541.16
201.6,4.07533,2541.46
201.7,4.08933,2543.28
201.8,4.10393,2544.57
201.9,4.11836,2545.95
202,4.13348,2547.37
202.1,4.14825,2548.03
202.2,4.16302,2549.84
202.3,4.17804,2550.33
202.4,4.19264,2552.36
202.5,4.20767,2553.13
202.6,4.2227,2554.98
202.7,4.23807,2555.66
202.8,4.25335,2556.86
202.9,4.26803,2558.23
203,4.28374,2559.28
203.1,4.29851,2561.17
203.2,4.31422,2562.12
203.3,4.32959,2563.80
203.4,4.3453,2564.87
203.5,4.36127,2566.19
203.6,4.37664,2567.29
203.7,4.39286,2568.36
203.8,4.40814,2569.60
203.9,4.42445,2570.85
204,4.43982,2571.80
204.1,4.45604,2573.29
204.2,4.47175,2574.19
204.3,4.48772,2576.06
204.4,4.50394,2576.70
204.5,4.51973,2578.64
204.6,4.53604,2579.36
204.7,4.55201,2581.06
204.8,4.56831,2581.90
204.9,4.58462,2583.36
205,4.60059,2584.55
205.1,4.61732,2585.84
205.2,4.6332,2587.01
205.3,4.65011,2588.38
205.4,4.66624,2589.32
205.5,4.68298,2591.12
205.6,4.69963,2591.59
205.7,4.71602,2593.72
205.8,4.73301,2594.22
205.9,4.74966,2596.09
206,4.76648,2596.90
206.1,4.78338,2598.53
206.2,4.79969,2599.96
206.3,4.81702,2601.35
206.4,4.83333,2602.64
206.5,4.85083,2604.05
206.6,4.86791,2604.96
206.7,4.88516,2606.28
206.8,4.903,2606.82
206.9,4.92025,2608.39
207,4.93809,2609.64
207.1,4.95491,2611.13
207.2,4.97267,2612.86
207.3,4.99026,2613.54
207.4,5.00862,2614.93
207.5,5.02714,2615.37
207.6,5.04447,2618.02
207.7,5.0624,2618.94
207.8,5.08042,2620.05
207.9,5.10006,2620.65
208,5.11807,2622.11
208.1,5.13575,2624.38
208.2,5.1553,2624.42
208.3,5.17468,2626.04
208.4,5.19295,2627.67
208.5,5.21182,2628.88
208.6,5.23248,2629.61
208.7,5.25092,2631.34
208.8,5.2709,2632.60
208.9,5.29105,2633.37
209,5.31018,2635.16
209.1,5.33118,2636.09
209.2,5.3509,2637.37
209.3,5.37182,2639.13
209.4,5.39265,2639.82
209.5,5.41314,2641.32
209.6,5.43509,2642.56
209.7,5.45566,2643.79
209.8,5.47769,2644.72
209.9,5.49955,2646.33
210,5.52106,2647.69
210.1,5.54377,2648.46
210.2,5.56597,2650.48
210.3,5.58877,2651.18
210.4,5.61131,2652.43
210.5,5.63436,2654.13
210.6,5.65835,2655.05
210.7,5.68158,2656.42
210.8,5.70617,2657.14
210.9,5.73016,2659.20
211,5.755,2660.32
211.1,5.78002,2661.04
211.2,5.80503,2662.56
211.3,5.83065,2663.84
211.4,5.85635,2665.43
211.5,5.88299,2666.19
211.6,5.90894,2667.63
211.7,5.93592,2668.82
211.8,5.96307,2669.93
211.9,5.99031,2671.70
212,6.0184,2672.54
212.1,6.04615,2674.04
212.2,6.07483,2675.01
212.3,6.10335,2676.28
212.4,6.13272,2677.61
212.5,6.16243,2678.51
212.6,6.19215,2680.38
212.7,6.22297,2681.31
212.8,6.25345,2683.13
212.9,6.28546,2684.03
213,6.31697,2685.49
213.1,6.34959,2686.71
213.2,6.38271,2687.81
213.3,6.41601,2689.39
213.4,6.45085,2690.12
213.5,6.48534,2691.63
213.6,6.52145,2692.36
213.7,6.55791,2693.85
213.8,6.59539,2695.19
213.9,6.63424,2696.25
214,6.67326,2697.92
214.1,6.7139,2698.78
214.2,6.75514,2700.27
214.3,6.798,2701.38
214.4,6.84111,2702.83
214.5,6.88611,2703.84
214.6,6.93256,2705.19
214.7,6.97977,2706.57
214.8,7.02938,2707.50
214.9,7.07932,2708.92
215,7.13192,2710.23
215.1,7.18571,2711.22
215.2,7.24154,2712.68
215.3,7.29994,2713.89
215.4,7.36048,2715.21
215.5,7.42434,2716.17
215.6,7.49119,2717.52
215.7,7.56214,2718.64
215.8,7.63736,2719.84
215.9,7.71788,2721.00
216,7.80411,2722.23
216.1,7.89598,2723.41
216.2,7.99493,2724.66
216.3,8.09995,2725.82
216.4,8.21316,2726.94
216.5,8.33534,2727.96
216.6,8.46836,2728.95
216.7,8.6141,2730.04
216.8,8.77419,2731.10
216.9,8.95221,2731.66
217,9.15234,2732.51
217.1,9.38021,2732.89
217.2,9.64549,2732.36
217.3,9.97121,2730.39
217.4,10.39811,2725.48
217.5,11.00943,2713.00
217.585,11.81874,2687.88
217.634,12.50408,2662.25
217.666,13.08867,2636.59
217.69,13.62562,2610.63
217.708,14.09965,2584.68
217.723,14.53534,2558.43
217.736,14.92655,2533.08
217.748,15.29334,2506.32
217.759,15.63298,2479.02
217.769,15.94385,2452.61
217.779,16.25676,2425.37
217.789,16.57096,2398.18
217.799,16.88652,2371.28
217.809,17.20285,2344.00
217.818,17.4887,2318.77
217.827,17.77524,2292.76
217.836,18.06245,2266.45
217.845,18.35044,2240.06
217.854,18.63894,2213.78
217.863,18.92829,2187.42
217.872,19.21789,2160.56
217.881,19.50818,2132.91
217.89,19.79881,2104.97
217.899,20.08961,2077.01
217.908,20.3811,2049.39
217.917,20.67267,2022.03
217.926,20.96475,1994.92
217.935,21.25675,1968.50
217.944,21.54926,1942.33
217.953,21.84186,1916.20
217.962,22.1348,1890.12
217.971,22.42833,1864.24
217.98,22.72187,1838.46
217.989,23.01523,1813.17
217.999,23.34129,1785.61
218.009,23.66804,1758.44
218.019,23.99513,1731.36
218.029,24.32256,1704.17
218.039,24.64999,1676.73
218.049,24.97785,1648.96
218.053,25.10899,1637.83
