Specimen choice input : Material,Steel,
Specimen properties : Geometry,Rectangular,
Specimen properties : Width,13.03,mm
Specimen properties : Thickness,3.57,mm
,,
Time,Extension,Load
(s),(mm),(N)
0,-1.86016,9.04
0.1,-1.85956,12.04
0.2,-1.85897,12.51
0.3,-1.8582,13.88
0.4,-1.85743,15.17
0.5,-1.85683,16.49
0.6,-1.85615,17.77
0.7,-1.85547,19.03
0.8,-1.85478,20.28
0.9,-1.85419,21.57
1,-1.85359,22.75
1.1,-1.85282,23.94
1.2,-1.85222,25.21
1.3,-1.85154,26.36
1.4,-1.85094,27.63
1.5,-1.85026,28.86
1.6,-1.84966,30.19
1.7,-1.84898,31.41
1.8,-1.84838,32.71
1.9,-1.84778,34.04
2,-1.84718,35.27
2.1,-1.84659,36.55
2.2,-1.84599,37.76
2.3,-1.84539,39.05
2.4,-1.84488,40.26
2.5,-1.84428,41.45
2.6,-1.84368,42.74
2.7,-1.84309,43.98
2.8,-1.84257,45.24
2.9,-1.84198,46.48
3,-1.84146,47.82
3.1,-1.84087,49.01
3.2,-1.84027,50.29
3.3,-1.83967,51.59
3.4,-1.83907,52.83
3.5,-1.83856,54.06
3.6,-1.83796,55.30
3.7,-1.83745,56.56
3.8,-1.83694,57.73
3.9,-1.83634,59.02
4,-1.83583,60.24
4.1,-1.83523,61.55
4.2,-1.83472,62.75
4.3,-1.83412,64.02
4.4,-1.83361,65.29
4.5,-1.83301,66.58
4.6,-1.8325,67.85
4.7,-1.8319,69.11
4.8,-1.83139,70.39
4.9,-1.83079,71.61
5,-1.83028,72.87
5.1,-1.82977,74.15
5.2,-1.82925,75.35
5.3,-1.82866,76.61
5.4,-1.82815,77.79
5.5,-1.82763,79.06
5.6,-1.82704,80.30
5.7,-1.82661,81.53
5.8,-1.82601,82.83
5.9,-1.8255,84.07
6,-1.82499,85.37
6.1,-1.82439,86.63
6.2,-1.82388,87.89
6.3,-1.82336,89.19
6.4,-1.82285,90.46
6.5,-1.82225,91.69
6.6,-1.82174,92.91
6.7,-1.82123,94.12
6.8,-1.82072,95.34
6.9,-1.8202,96.57
7,-1.81969,97.80
7.1,-1.81927,99.04
7.2,-1.81867,100.27
7.3,-1.81816,101.55
7.4,-1.81764,102.80
7.5,-1.81713,104.07
7.6,-1.81662,105.33
7.7,-1.81611,106.62
7.8,-1.81559,107.91
7.9,-1.815,109.16
8,-1.81457,110.44
8.1,-1.81397,111.68
8.2,-1.81346,112.89
8.3,-1.81295,114.11
8.4,-1.81252,115.43
8.5,-1.81201,116.63
8.6,-1.8115,117.84
8.7,-1.81098,119.13
8.8,-1.81047,120.34
8.9,-1.80996,121.63
9,-1.80945,122.89
9.1,-1.80893,124.19
9.2,-1.80842,125.45
9.3,-1.80791,126.70
9.4,-1.8074,127.98
9.5,-1.80689,129.20
9.6,-1.80646,130.52
9.7,-1.80586,131.70
9.8,-1.80543,132.98
9.9,-1.80492,134.16
10,-1.80441,135.39
10.1,-1.8039,136.64
10.2,-1.80347,137.92
10.3,-1.80296,139.15
10.4,-1.80245,140.38
10.5,-1.80193,141.67
10.6,-1.80142,142.92
10.7,-1.80099,144.21
10.8,-1.8004,145.45
10.9,-1.79997,146.74
11,-1.79946,148.02
11.1,-1.79895,149.28
11.2,-1.79843,150.53
11.3,-1.79792,151.74
11.4,-1.79749,153.04
11.5,-1.79698,154.24
11.6,-1.79655,155.51
11.7,-1.79604,156.70
11.8,-1.79553,157.95
11.9,-1.79502,159.22
12,-1.79459,160.46
12.1,-1.79408,161.68
12.2,-1.79357,162.95
12.3,-1.79314,164.19
12.4,-1.79263,165.51
12.5,-1.79211,166.80
12.6,-1.7916,168.05
12.7,-1.79109,169.31
12.8,-1.79058,170.52
12.9,-1.79015,171.83
13,-1.78964,173.06
13.1,-1.78921,174.30
13.2,-1.7887,175.57
13.3,-1.78819,176.76
13.4,-1.78776,177.96
13.5,-1.78725,179.21
13.6,-1.78682,180.46
13.7,-1.78631,181.65
13.8,-1.7858,182.96
13.9,-1.78537,184.18
14,-1.78486,185.45
14.1,-1.78435,186.74
14.2,-1.78383,187.97
14.3,-1.78341,189.31
14.4,-1.78289,190.52
14.5,-1.78238,191.81
14.6,-1.78187,193.05
14.7,-1.78144,194.33
14.8,-1.78102,195.60
14.9,-1.7805,196.80
15,-1.78008,198.02
15.1,-1.77956,199.28
15.2,-1.77914,200.51
15.3,-1.77863,201.72
15.4,-1.77811,203.00
15.5,-1.77769,204.29
15.6,-1.77717,205.53
15.7,-1.77666,206.79
15.8,-1.77623,208.02
15.9,-1.77572,209.35
16,-1.77521,210.57
16.1,-1.77478,211.87
16.2,-1.77427,213.13
16.3,-1.77384,214.38
16.4,-1.77333,215.59
16.5,-1.77282,216.87
16.6,-1.77239,218.08
16.7,-1.77197,219.29
16.8,-1.77145,220.56
16.9,-1.77103,221.78
17,-1.77051,223.07
17.1,-1.77009,224.29
17.2,-1.76957,225.60
17.3,-1.76906,226.80
17.4,-1.76864,228.08
17.5,-1.76812,229.31
17.6,-1.7677,230.61
17.7,-1.76718,231.87
17.8,-1.76667,233.19
17.9,-1.76625,234.44
18,-1.76573,235.67
18.1,-1.76531,236.93
18.2,-1.76479,238.11
18.3,-1.76437,239.41
18.4,-1.76394,240.62
18.5,-1.76343,241.88
18.6,-1.763,243.09
18.7,-1.76249,244.35
18.8,-1.76206,245.58
18.9,-1.76155,246.78
19,-1.76112,248.12
19.1,-1.76061,249.37
19.2,-1.76018,250.66
19.3,-1.75967,251.91
19.4,-1.75924,253.17
19.5,-1.75873,254.43
19.6,-1.7583,255.72
19.7,-1.75779,256.95
19.8,-1.75737,258.19
19.9,-1.75685,259.47
20,-1.75643,260.68
20.1,-1.75591,261.90
20.2,-1.75549,263.18
20.3,-1.75506,264.37
20.4,-1.75455,265.60
20.5,-1.75412,266.83
20.6,-1.75361,268.11
20.7,-1.75318,269.31
20.8,-1.75267,270.59
20.9,-1.75224,271.87
21,-1.75173,273.13
21.1,-1.7513,274.38
21.2,-1.75079,275.67
21.3,-1.75036,276.96
21.4,-1.74985,278.21
21.5,-1.74943,279.48
21.6,-1.74891,280.73
21.7,-1.74849,281.93
21.8,-1.74806,283.22
21.9,-1.74755,284.42
22,-1.74712,285.66
22.1,-1.74669,286.92
22.2,-1.74618,288.13
22.3,-1.74575,289.42
22.4,-1.74524,290.65
22.5,-1.74481,291.91
22.6,-1.7443,293.19
22.7,-1.74388,294.45
22.8,-1.74336,295.72
22.9,-1.74294,296.97
23,-1.74251,298.23
23.1,-1.742,299.52
23.2,-1.74157,300.75
23.3,-1.74106,302.04
23.4,-1.74063,303.27
23.5,-1.7402,304.51
23.6,-1.73978,305.68
23.7,-1.73927,306.95
23.8,-1.73884,308.21
23.9,-1.73833,309.46
24,-1.7379,310.71
24.1,-1.73747,311.96
24.2,-1.73696,313.20
24.3,-1.73653,314.50
24.4,-1.73602,315.75
24.5,-1.73559,316.96
24.6,-1.73508,318.28
24.7,-1.73465,319.55
24.8,-1.73423,320.80
24.9,-1.73372,322.03
25,-1.73329,323.36
25.1,-1.73278,324.56
25.2,-1.73235,325.80
25.3,-1.73192,327.04
25.4,-1.73141,328.25
25.5,-1.73098,329.50
25.6,-1.73056,330.72
25.7,-1.73013,331.98
25.8,-1.72962,333.21
25.9,-1.72919,334.45
26,-1.72876,335.72
26.1,-1.72825,336.99
26.2,-1.72782,338.27
26.3,-1.72731,339.56
26.4,-1.72688,340.84
26.5,-1.72637,342.07
26.6,-1.72595,343.38
26.7,-1.72543,344.59
26.8,-1.72501,345.87
26.9,-1.72458,347.10
27,-1.72415,348.36
27.1,-1.72364,349.57
27.2,-1.72321,350.83
27.3,-1.72279,352.03
27.4,-1.72236,353.31
27.5,-1.72185,354.49
27.6,-1.72142,355.72
27.7,-1.72099,356.94
27.8,-1.72048,358.26
27.9,-1.72005,359.50
28,-1.71963,360.78
28.1,-1.71912,362.02
28.2,-1.71869,363.34
28.3,-1.71826,364.60
28.4,-1.71775,365.87
28.5,-1.71732,367.13
28.6,-1.7169,368.37
28.7,-1.71638,369.65
28.8,-1.71596,370.86
28.9,-1.71553,372.13
29,-1.7151,373.34
29.1,-1.71468,374.58
29.2,-1.71416,375.78
29.3,-1.71374,377.06
29.4,-1.71331,378.33
29.5,-1.7128,379.60
29.6,-1.71237,380.83
29.7,-1.71194,382.07
29.8,-1.71152,383.37
29.9,-1.711,384.64
30,-1.71058,385.91
30.1,-1.71015,387.17
30.2,-1.70964,388.42
30.3,-1.70921,389.67
30.4,-1.70878,390.91
30.5,-1.70836,392.16
30.6,-1.70785,393.42
30.7,-1.70742,394.64
30.8,-1.70699,395.83
30.9,-1.70656,397.09
31,-1.70605,398.38
31.1,-1.70563,399.60
31.2,-1.7052,400.86
31.3,-1.70477,402.10
31.4,-1.70426,403.38
31.5,-1.70383,404.61
31.6,-1.70341,405.89
31.7,-1.70289,407.17
31.8,-1.70247,408.42
31.9,-1.70204,409.68
32,-1.70161,410.96
32.1,-1.70119,412.21
32.2,-1.70067,413.47
32.3,-1.70025,414.70
32.4,-1.69982,415.97
32.5,-1.69939,417.21
32.6,-1.69897,418.41
32.7,-1.69845,419.68
32.8,-1.69803,420.91
32.9,-1.6976,422.13
33,-1.69717,423.40
33.1,-1.69675,424.62
33.2,-1.69632,425.93
33.3,-1.69581,427.17
33.4,-1.69538,428.43
33.5,-1.69495,429.70
33.6,-1.69444,430.97
33.7,-1.69401,432.25
33.8,-1.69359,433.49
33.9,-1.69316,434.78
34,-1.69273,436.05
34.1,-1.69231,437.27
34.2,-1.69179,438.52
34.3,-1.69137,439.71
34.4,-1.69094,440.98
34.5,-1.69051,442.21
34.6,-1.69009,443.46
34.7,-1.68966,444.66
34.8,-1.68923,445.93
34.9,-1.68881,447.13
35,-1.68838,448.38
35.1,-1.68787,449.65
35.2,-1.68744,450.91
35.3,-1.68701,452.18
35.4,-1.68659,453.45
35.5,-1.68616,454.72
35.6,-1.68573,456.02
35.7,-1.68531,457.24
35.8,-1.68479,458.51
35.9,-1.68437,459.76
36,-1.68394,461.00
36.1,-1.68351,462.28
36.2,-1.68309,463.52
36.3,-1.68266,464.76
36.4,-1.68223,466.00
36.5,-1.6818,467.23
36.6,-1.68138,468.48
36.7,-1.68087,469.71
36.8,-1.68044,471.01
36.9,-1.68001,472.26
37,-1.67958,473.52
37.1,-1.67916,474.78
37.2,-1.67873,476.01
37.3,-1.6783,477.29
37.4,-1.67788,478.57
37.5,-1.67736,479.82
37.6,-1.67694,481.03
37.7,-1.67651,482.34
37.8,-1.67608,483.59
37.9,-1.67566,484.82
38,-1.67523,486.09
38.1,-1.6748,487.26
38.2,-1.67438,488.52
38.3,-1.67395,489.75
38.4,-1.67352,491.04
38.5,-1.6731,492.28
38.6,-1.67267,493.54
38.7,-1.67224,494.78
38.8,-1.67182,496.03
38.9,-1.67139,497.30
39,-1.67096,498.58
39.1,-1.67053,499.82
39.2,-1.67011,501.07
39.3,-1.6696,502.35
39.4,-1.66917,503.60
39.5,-1.66874,504.84
39.6,-1.66831,506.15
39.7,-1.66789,507.38
39.8,-1.66746,508.63
39.9,-1.66703,509.87
40,-1.66661,511.07
40.1,-1.66627,512.36
40.2,-1.66575,513.59
40.3,-1.66533,514.78
40.4,-1.6649,516.08
40.5,-1.66456,517.29
40.6,-1.66405,518.54
40.7,-1.66362,519.83
40.8,-1.66319,521.06
40.9,-1.66277,522.34
41,-1.66234,523.58
41.1,-1.66191,524.92
41.2,-1.66148,526.15
41.3,-1.66106,527.43
41.4,-1.66063,528.68
41.5,-1.6602,529.90
41.6,-1.65978,531.19
41.7,-1.65935,532.45
41.8,-1.65892,533.67
41.9,-1.6585,534.89
42,-1.65807,536.15
42.1,-1.65764,537.38
42.2,-1.65722,538.58
42.3,-1.65687,539.81
42.4,-1.65645,541.06
42.5,-1.65602,542.30
42.6,-1.65559,543.55
42.7,-1.65517,544.83
42.8,-1.65474,546.11
42.9,-1.65431,547.36
43,-1.65389,548.64
43.1,-1.65346,549.90
43.2,-1.65303,551.16
43.3,-1.6526,552.41
43.4,-1.65218,553.67
43.5,-1.65175,554.91
43.6,-1.65132,556.19
43.7,-1.6509,557.44
43.8,-1.65047,558.67
43.9,-1.65004,559.92
44,-1.6497,561.14
44.1,-1.64927,562.38
44.2,-1.64885,563.62
44.3,-1.64842,564.89
44.4,-1.64799,566.16
44.5,-1.64757,567.41
44.6,-1.64714,568.69
44.7,-1.64671,569.92
44.8,-1.64629,571.19
44.9,-1.64586,572.45
45,-1.64543,573.67
45.1,-1.64501,574.98
45.2,-1.64466,576.23
45.3,-1.64424,577.48
45.4,-1.64381,578.71
45.5,-1.64338,579.99
45.6,-1.64296,581.24
45.7,-1.64253,582.48
45.8,-1.6421,583.72
45.9,-1.64176,584.94
46,-1.64125,586.13
46.1,-1.64091,587.45
46.2,-1.64048,588.71
46.3,-1.64005,589.95
46.4,-1.63963,591.22
46.5,-1.6392,592.47
46.6,-1.63877,593.72
46.7,-1.63835,595.00
46.8,-1.63801,596.24
46.9,-1.63758,597.51
47,-1.63715,598.77
47.1,-1.63672,600.02
47.2,-1.6363,601.32
47.3,-1.63587,602.53
47.4,-1.63544,603.80
47.5,-1.6351,605.03
47.6,-1.63468,606.30
47.7,-1.63425,607.54
47.8,-1.63382,608.76
47.9,-1.63339,610.01
48,-1.63305,611.25
48.1,-1.63263,612.49
48.2,-1.6322,613.71
48.3,-1.63177,614.95
48.4,-1.63135,616.22
48.5,-1.63092,617.49
48.6,-1.63049,618.76
48.7,-1.63006,620.03
48.8,-1.62964,621.29
48.9,-1.6293,622.55
49,-1.62887,623.85
49.1,-1.62844,625.10
49.2,-1.62802,626.37
49.3,-1.62759,627.59
49.4,-1.62716,628.83
49.5,-1.62673,630.11
49.6,-1.62639,631.35
49.7,-1.62597,632.55
49.8,-1.62554,633.78
49.9,-1.6252,635.04
50,-1.62477,636.24
50.1,-1.62434,637.46
50.2,-1.62392,638.73
50.3,-1.62358,640.00
50.4,-1.62315,641.25
50.5,-1.62272,642.49
50.6,-1.6223,643.77
50.7,-1.62187,645.06
50.8,-1.62144,646.32
50.9,-1.62101,647.56
51,-1.62067,648.82
51.1,-1.62025,650.07
51.2,-1.61982,651.33
51.3,-1.61939,652.59
51.4,-1.61897,653.85
51.5,-1.61862,655.12
51.6,-1.6182,656.37
51.7,-1.61777,657.59
51.8,-1.61734,658.86
51.9,-1.617,660.07
52,-1.61657,661.28
52.1,-1.61615,662.58
52.2,-1.61572,663.83
52.3,-1.61529,665.08
52.4,-1.61487,666.33
52.5,-1.61453,667.58
52.6,-1.6141,668.85
52.7,-1.61367,670.09
52.8,-1.61324,671.37
52.9,-1.61282,672.64
53,-1.61248,673.89
53.1,-1.61205,675.15
53.2,-1.61162,676.40
53.3,-1.6112,677.61
53.4,-1.61085,678.88
53.5,-1.61043,680.13
53.6,-1.61,681.41
53.7,-1.60957,682.63
53.8,-1.60923,683.86
53.9,-1.60881,685.09
54,-1.60838,686.36
54.1,-1.60795,687.59
54.2,-1.60752,688.88
54.3,-1.60718,690.14
54.4,-1.60676,691.35
54.5,-1.60633,692.63
54.6,-1.6059,693.91
54.7,-1.60556,695.17
54.8,-1.60513,696.42
54.9,-1.60471,697.69
55,-1.60428,698.97
55.1,-1.60385,700.20
55.2,-1.60351,701.43
55.3,-1.60308,702.72
55.4,-1.60266,703.94
55.5,-1.60232,705.24
55.6,-1.60189,706.44
55.7,-1.60146,707.72
55.8,-1.60104,708.93
55.9,-1.60069,710.19
56,-1.60027,711.39
56.1,-1.59984,712.65
56.2,-1.5995,713.92
56.3,-1.59907,715.16
56.4,-1.59864,716.39
56.5,-1.59822,717.69
56.6,-1.59788,718.96
56.7,-1.59745,720.20
56.8,-1.59702,721.50
56.9,-1.5966,722.72
57,-1.59617,724.01
57.1,-1.59574,725.24
57.2,-1.5954,726.51
57.3,-1.59497,727.77
57.4,-1.59455,729.02
57.5,-1.59421,730.25
57.6,-1.59378,731.52
57.7,-1.59335,732.74
57.8,-1.59301,733.96
57.9,-1.59258,735.19
58,-1.59224,736.43
58.1,-1.59181,737.67
58.2,-1.59139,738.91
58.3,-1.59096,740.15
58.4,-1.59062,741.42
58.5,-1.59019,742.71
58.6,-1.58977,743.94
58.7,-1.58934,745.21
58.8,-1.589,746.47
58.9,-1.58857,747.75
59,-1.58814,748.98
59.1,-1.58772,750.26
59.2,-1.58737,751.51
59.3,-1.58695,752.78
59.4,-1.58652,754.03
59.5,-1.58618,755.29
59.6,-1.58575,756.55
59.7,-1.58533,757.77
59.8,-1.5849,759.02
59.9,-1.58456,760.26
60,-1.58413,761.46
60.1,-1.5837,762.76
60.2,-1.58336,763.99
60.3,-1.58294,765.25
60.4,-1.58251,766.50
60.5,-1.58208,767.76
60.6,-1.58174,768.99
60.7,-1.58131,770.26
60.8,-1.58089,771.58
60.9,-1.58046,772.77
61,-1.58012,774.07
61.1,-1.57969,775.30
61.2,-1.57926,776.59
61.3,-1.57892,777.85
61.4,-1.5785,779.06
61.5,-1.57815,780.35
61.6,-1.57773,781.56
61.7,-1.5773,782.80
61.8,-1.57687,784.05
61.9,-1.57653,785.30
62,-1.5761,786.55
62.1,-1.57568,787.78
62.2,-1.57534,789.01
62.3,-1.57491,790.30
62.4,-1.57448,791.54
62.5,-1.57414,792.80
62.6,-1.57371,794.08
62.7,-1.57329,795.31
62.8,-1.57295,796.59
62.9,-1.57252,797.89
63,-1.57209,799.14
63.1,-1.57175,800.37
63.2,-1.57132,801.62
63.3,-1.5709,802.86
63.4,-1.57047,804.15
63.5,-1.57013,805.37
63.6,-1.5697,806.64
63.7,-1.56927,807.85
63.8,-1.56893,809.11
63.9,-1.56851,810.33
64,-1.56816,811.58
64.1,-1.56774,812.84
64.2,-1.56731,814.05
64.3,-1.56697,815.31
64.4,-1.56654,816.55
64.5,-1.56612,817.87
64.6,-1.56569,819.11
64.7,-1.56535,820.37
64.8,-1.56492,821.64
64.9,-1.56449,822.91
65,-1.56415,824.14
65.1,-1.56372,825.42
65.2,-1.5633,826.68
65.3,-1.56287,827.95
65.4,-1.56253,829.20
65.5,-1.5621,830.45
65.6,-1.56176,831.67
65.7,-1.56133,832.94
65.8,-1.56091,834.13
65.9,-1.56057,835.42
66,-1.56014,836.61
66.1,-1.55971,837.88
66.2,-1.55937,839.10
66.3,-1.55894,840.30
66.4,-1.5586,841.61
66.5,-1.55818,842.84
66.6,-1.55775,844.09
66.7,-1.55741,845.35
66.8,-1.55698,846.63
66.9,-1.55655,847.90
67,-1.55613,849.17
67.1,-1.55578,850.44
67.2,-1.55536,851.70
67.3,-1.55493,852.91
67.4,-1.55459,854.20
67.5,-1.55416,855.44
67.6,-1.55374,856.71
67.7,-1.55339,857.94
67.8,-1.55297,859.22
67.9,-1.55254,860.43
68,-1.5522,861.68
68.1,-1.55177,862.92
68.2,-1.55143,864.15
68.3,-1.551,865.42
68.4,-1.55066,866.69
68.5,-1.55023,867.93
68.6,-1.54981,869.16
68.7,-1.54947,870.44
68.8,-1.54904,871.70
68.9,-1.54861,872.96
69,-1.54827,874.23
69.1,-1.54784,875.50
69.2,-1.54742,876.72
69.3,-1.54708,878.00
69.4,-1.54665,879.28
69.5,-1.54631,880.54
69.6,-1.54588,881.75
69.7,-1.54545,883.03
69.8,-1.54511,884.25
69.9,-1.54469,885.50
70,-1.54426,886.72
70.1,-1.54392,887.97
70.2,-1.54349,889.19
70.3,-1.54315,890.45
70.4,-1.54272,891.73
70.5,-1.54229,892.94
70.6,-1.54195,894.23
70.7,-1.54153,895.44
70.8,-1.5411,896.75
70.9,-1.54076,898.01
71,-1.54033,899.28
71.1,-1.53999,900.55
71.2,-1.53956,901.79
71.3,-1.53914,903.04
71.4,-1.53879,904.32
71.5,-1.53837,905.56
71.6,-1.53794,906.83
71.7,-1.5376,908.05
71.8,-1.53717,909.32
71.9,-1.53674,910.53
72,-1.5364,911.81
72.1,-1.53598,913.00
72.2,-1.53563,914.28
72.3,-1.53521,915.52
72.4,-1.53478,916.74
72.5,-1.53444,917.98
72.6,-1.53401,919.21
72.7,-1.53359,920.54
72.8,-1.53324,921.74
72.9,-1.53282,923.03
73,-1.53248,924.32
73.1,-1.53205,925.57
73.2,-1.53171,926.85
73.3,-1.53128,928.10
73.4,-1.53085,929.35
73.5,-1.53043,930.65
73.6,-1.53009,931.86
73.7,-1.52974,933.11
73.8,-1.52932,934.33
73.9,-1.52889,935.63
74,-1.52855,936.82
74.1,-1.52812,938.12
74.2,-1.52778,939.33
74.3,-1.52735,940.57
74.4,-1.52701,941.74
74.5,-1.52658,943.01
74.6,-1.52624,944.27
74.7,-1.52582,945.52
74.8,-1.52539,946.77
74.9,-1.52505,948.05
75,-1.52462,949.31
75.1,-1.52419,950.58
75.2,-1.52385,951.84
75.3,-1.52343,953.11
75.4,-1.523,954.34
75.5,-1.52266,955.61
75.6,-1.52223,956.89
75.7,-1.52189,958.13
75.8,-1.52146,959.40
75.9,-1.52104,960.60
76,-1.52069,961.91
76.1,-1.52027,963.10
76.2,-1.51993,964.38
76.3,-1.51958,965.62
76.4,-1.51916,966.86
76.5,-1.51882,968.07
76.6,-1.51839,969.32
76.7,-1.51796,970.57
76.8,-1.51762,971.89
76.9,-1.51719,973.11
77,-1.51685,974.39
77.1,-1.51642,975.61
77.2,-1.51608,976.88
77.3,-1.51566,978.14
77.4,-1.51523,979.40
77.5,-1.5148,980.70
77.6,-1.51446,981.89
77.7,-1.51412,983.22
77.8,-1.51369,984.42
77.9,-1.51327,985.71
78,-1.51292,986.92
78.1,-1.5125,988.21
78.2,-1.51216,989.46
78.3,-1.51173,990.64
78.4,-1.51139,991.91
78.5,-1.51096,993.15
78.6,-1.51062,994.39
78.7,-1.51019,995.66
78.8,-1.50977,996.94
78.9,-1.50942,998.13
79,-1.509,999.40
79.1,-1.50857,1000.71
79.2,-1.50823,1001.92
79.3,-1.5078,1003.22
79.4,-1.50737,1004.46
79.5,-1.50703,1005.71
79.6,-1.50661,1006.99
79.7,-1.50626,1008.21
79.8,-1.50584,1009.52
79.9,-1.5055,1010.74
80,-1.50507,1012.01
80.1,-1.50464,1013.26
80.2,-1.5043,1014.47
80.3,-1.50387,1015.73
80.4,-1.50353,1016.96
80.5,-1.50311,1018.21
80.6,-1.50276,1019.45
80.7,-1.50234,1020.68
80.8,-1.502,1021.90
80.9,-1.50157,1023.15
81,-1.50123,1024.46
81.1,-1.5008,1025.70
81.2,-1.50037,1026.98
81.3,-1.50003,1028.24
81.4,-1.4996,1029.49
81.5,-1.49926,1030.74
81.6,-1.49884,1032.01
81.7,-1.49841,1033.25
81.8,-1.49807,1034.56
81.9,-1.49764,1035.77
82,-1.4973,1037.06
82.1,-1.49687,1038.27
82.2,-1.49653,1039.52
82.3,-1.4961,1040.79
82.4,-1.49576,1042.05
82.5,-1.49534,1043.24
82.6,-1.49491,1044.51
82.7,-1.49457,1045.71
82.8,-1.49414,1046.91
82.9,-1.4938,1048.22
83,-1.49337,1049.41
83.1,-1.49303,1050.72
83.2,-1.4926,1051.95
83.3,-1.49226,1053.21
83.4,-1.49184,1054.50
83.5,-1.49141,1055.78
83.6,-1.49107,1057.04
83.7,-1.49064,1058.28
83.8,-1.49021,1059.58
83.9,-1.48987,1060.80
84,-1.48944,1062.04
84.1,-1.4891,1063.32
84.2,-1.48868,1064.60
84.3,-1.48833,1065.83
84.4,-1.48791,1067.06
84.5,-1.48757,1068.29
84.6,-1.48722,1069.58
84.7,-1.4868,1070.75
84.8,-1.48637,1072.04
84.9,-1.48594,1073.26
85,-1.4856,1074.51
85.1,-1.48526,1075.81
85.2,-1.48483,1077.03
85.3,-1.48449,1078.34
85.4,-1.48407,1079.55
85.5,-1.48372,1080.84
85.6,-1.4833,1082.09
85.7,-1.48287,1083.37
85.8,-1.48253,1084.61
85.9,-1.4821,1085.89
86,-1.48176,1087.15
86.1,-1.48133,1088.36
86.2,-1.48091,1089.62
86.3,-1.48057,1090.92
86.4,-1.48014,1092.15
86.5,-1.4798,1093.37
86.6,-1.47937,1094.58
86.7,-1.47903,1095.86
86.8,-1.4786,1097.02
86.9,-1.47826,1098.33
87,-1.47783,1099.60
87.1,-1.47741,1100.81
87.2,-1.47706,1102.10
87.3,-1.47664,1103.33
87.4,-1.4763,1104.59
87.5,-1.47587,1105.83
87.6,-1.47553,1107.15
87.7,-1.4751,1108.39
87.8,-1.47476,1109.70
87.9,-1.47433,1110.89
88,-1.47391,1112.15
88.1,-1.47356,1113.45
88.2,-1.47314,1114.65
88.3,-1.4728,1115.92
88.4,-1.47237,1117.16
88.5,-1.47203,1118.44
88.6,-1.47169,1119.69
88.7,-1.47126,1120.88
88.8,-1.47083,1122.16
88.9,-1.47049,1123.39
89,-1.47006,1124.64
89.1,-1.46972,1125.85
89.2,-1.4693,1127.15
89.3,-1.46895,1128.36
89.4,-1.46853,1129.64
89.5,-1.46819,1130.88
89.6,-1.46776,1132.11
89.7,-1.46733,1133.43
89.8,-1.46699,1134.67
89.9,-1.46656,1135.94
90,-1.46622,1137.20
90.1,-1.46579,1138.52
90.2,-1.46537,1139.73
90.3,-1.46503,1140.96
90.4,-1.4646,1142.26
90.5,-1.46426,1143.49
90.6,-1.46383,1144.71
90.7,-1.46349,1145.96
90.8,-1.46306,1147.19
90.9,-1.46272,1148.41
91,-1.46238,1149.66
91.1,-1.46195,1150.84
91.2,-1.46161,1152.12
91.3,-1.46118,1153.38
91.4,-1.46076,1154.67
91.5,-1.46042,1155.86
91.6,-1.45999,1157.11
91.7,-1.45965,1158.42
91.8,-1.45922,1159.66
91.9,-1.45888,1160.99
92,-1.45845,1162.17
92.1,-1.45803,1163.51
92.2,-1.45768,1164.69
92.3,-1.45726,1165.96
92.4,-1.45692,1167.26
92.5,-1.45649,1168.51
92.6,-1.45615,1169.79
92.7,-1.45572,1170.99
92.8,-1.45538,1172.21
92.9,-1.45504,1173.52
93,-1.45461,1174.70
93.1,-1.45427,1175.92
93.2,-1.45384,1177.22
93.3,-1.45341,1178.48
93.4,-1.45307,1179.71
93.5,-1.45265,1180.97
93.6,-1.4523,1182.22
93.7,-1.45188,1183.47
93.8,-1.45154,1184.77
93.9,-1.45111,1185.99
94,-1.45077,1187.27
94.1,-1.45034,1188.52
94.2,-1.45,1189.78
94.3,-1.44957,1191.08
94.4,-1.44923,1192.28
94.5,-1.4488,1193.59
94.6,-1.44838,1194.82
94.7,-1.44804,1196.07
94.8,-1.44769,1197.34
94.9,-1.44727,1198.52
95,-1.44693,1199.78
95.1,-1.4465,1200.99
95.2,-1.44607,1202.28
95.3,-1.44573,1203.46
95.4,-1.4453,1204.77
95.5,-1.44496,1206.00
95.6,-1.44454,1207.26
95.7,-1.44419,1208.53
95.8,-1.44377,1209.77
95.9,-1.44343,1211.03
96,-1.44308,1212.31
96.1,-1.44257,1213.53
96.2,-1.44223,1214.83
96.3,-1.44189,1216.11
96.4,-1.44146,1217.37
96.5,-1.44112,1218.61
96.6,-1.44069,1219.84
96.7,-1.44035,1221.11
96.8,-1.43992,1222.35
96.9,-1.43958,1223.63
97,-1.43916,1224.85
97.1,-1.43881,1226.05
97.2,-1.43847,1227.37
97.3,-1.43805,1228.55
97.4,-1.43762,1229.81
97.5,-1.43728,1231.04
97.6,-1.43685,1232.32
97.7,-1.43651,1233.53
97.8,-1.43608,1234.81
97.9,-1.43574,1236.06
98,-1.43531,1237.32
98.1,-1.43497,1238.61
98.2,-1.43455,1239.86
98.3,-1.4342,1241.15
98.4,-1.43378,1242.39
98.5,-1.43335,1243.60
98.6,-1.43301,1244.94
98.7,-1.43258,1246.15
98.8,-1.43224,1247.39
98.9,-1.4319,1248.69
99,-1.43147,1249.90
99.1,-1.43113,1251.14
99.2,-1.4307,1252.37
99.3,-1.43036,1253.63
99.4,-1.42994,1254.87
99.5,-1.42959,1256.13
99.6,-1.42925,1257.33
99.7,-1.42883,1258.54
99.8,-1.42848,1259.81
99.9,-1.42806,1261.03
100,-1.42772,1262.36
100.1,-1.42729,1263.59
100.2,-1.42686,1264.82
100.3,-1.42652,1266.14
100.4,-1.42609,1267.37
100.5,-1.42575,1268.66
100.6,-1.42541,1269.91
100.7,-1.42498,1271.17
100.8,-1.42464,1272.39
100.9,-1.42421,1273.70
101,-1.42387,1274.95
101.1,-1.42345,1276.20
101.2,-1.4231,1277.41
101.3,-1.42268,1278.68
101.4,-1.42234,1279.88
101.5,-1.422,1281.14
101.6,-1.42157,1282.40
101.7,-1.42114,1283.66
101.8,-1.4208,1284.88
101.9,-1.42037,1286.16
102,-1.42003,1287.40
102.1,-1.4196,1288.60
102.2,-1.41926,1289.98
102.3,-1.41884,1291.17
102.4,-1.41849,1292.46
102.5,-1.41815,1293.74
102.6,-1.41773,1294.95
102.7,-1.4173,1296.24
102.8,-1.41696,1297.50
102.9,-1.41653,1298.74
103,-1.41619,1300.00
103.1,-1.41576,1301.19
103.2,-1.41542,1302.51
103.3,-1.41499,1303.72
103.4,-1.41465,1305.00
103.5,-1.41423,1306.18
103.6,-1.41388,1307.44
103.7,-1.41354,1308.70
103.8,-1.41312,1309.93
103.9,-1.41277,1311.25
104,-1.41235,1312.43
104.1,-1.41201,1313.72
104.2,-1.41158,1314.96
104.3,-1.41124,1316.15
104.4,-1.4109,1317.52
104.5,-1.41038,1318.73
104.6,-1.41004,1320.01
104.7,-1.4097,1321.28
104.8,-1.40927,1322.53
104.9,-1.40893,1323.79
105,-1.4085,1325.01
105.1,-1.40816,1326.31
105.2,-1.40774,1327.55
105.3,-1.4074,1328.85
105.4,-1.40705,1330.05
105.5,-1.40663,1331.28
105.6,-1.40629,1332.55
105.7,-1.40586,1333.74
105.8,-1.40552,1335.02
105.9,-1.40509,1336.24
106,-1.40475,1337.47
106.1,-1.40441,1338.80
106.2,-1.40398,1339.97
106.3,-1.40364,1341.25
106.4,-1.40321,1342.47
106.5,-1.40278,1343.77
106.6,-1.40244,1345.01
106.7,-1.40202,1346.31
106.8,-1.40167,1347.55
106.9,-1.40133,1348.79
107,-1.40091,1350.11
107.1,-1.40056,1351.32
107.2,-1.40014,1352.60
107.3,-1.3998,1353.83
107.4,-1.39937,1355.07
107.5,-1.39903,1356.36
107.6,-1.3986,1357.52
107.7,-1.39826,1358.86
107.8,-1.39792,1360.06
107.9,-1.39749,1361.30
108,-1.39715,1362.51
108.1,-1.39681,1363.70
108.2,-1.39647,1365.02
108.3,-1.39604,1366.23
108.4,-1.3957,1367.51
108.5,-1.39527,1368.76
108.6,-1.39484,1370.02
108.7,-1.3945,1371.28
108.8,-1.39416,1372.54
108.9,-1.39373,1373.82
109,-1.39339,1375.08
109.1,-1.39297,1376.40
109.2,-1.39262,1377.58
109.3,-1.3922,1378.83
109.4,-1.39186,1380.18
109.5,-1.39143,1381.35
109.6,-1.39109,1382.63
109.7,-1.39066,1383.86
109.8,-1.39032,1385.13
109.9,-1.38998,1386.36
110,-1.38955,1387.59
110.1,-1.38921,1388.82
110.2,-1.38878,1390.03
110.3,-1.38844,1391.34
110.4,-1.38801,1392.54
110.5,-1.38767,1393.84
110.6,-1.38733,1395.10
110.7,-1.3869,1396.35
110.8,-1.38656,1397.60
110.9,-1.38614,1398.89
111,-1.38579,1400.16
111.1,-1.38537,1401.41
111.2,-1.38503,1402.62
111.3,-1.3846,1403.94
111.4,-1.38417,1405.13
111.5,-1.38392,1406.47
111.6,-1.38349,1407.68
111.7,-1.38306,1408.91
111.8,-1.38272,1410.14
111.9,-1.38238,1411.41
112,-1.38195,1412.66
112.1,-1.38161,1413.87
112.2,-1.38127,1415.13
112.3,-1.38084,1416.33
112.4,-1.38042,1417.62
112.5,-1.38007,1418.86
112.6,-1.37973,1420.09
112.7,-1.37939,1421.41
112.8,-1.37896,1422.64
112.9,-1.37862,1423.90
113,-1.3782,1425.12
113.1,-1.37777,1426.43
113.2,-1.37743,1427.67
113.3,-1.37709,1428.96
113.4,-1.37674,1430.25
113.5,-1.37623,1431.45
113.6,-1.37589,1432.72
113.7,-1.37555,1434.02
113.8,-1.37512,1435.24
113.9,-1.37478,1436.48
114,-1.37435,1437.70
114.1,-1.37401,1439.00
114.2,-1.37367,1440.19
114.3,-1.37324,1441.45
114.4,-1.3729,1442.67
114.5,-1.37247,1443.91
114.6,-1.37213,1445.20
114.7,-1.37179,1446.34
114.8,-1.37136,1447.65
114.9,-1.37102,1448.94
115,-1.3706,1450.19
115.1,-1.37025,1451.43
115.2,-1.36983,1452.72
115.3,-1.36949,1453.96
115.4,-1.36906,1455.20
115.5,-1.36872,1456.54
115.6,-1.36838,1457.77
115.7,-1.36795,1458.99
115.8,-1.36761,1460.26
115.9,-1.36718,1461.52
116,-1.36684,1462.79
116.1,-1.3665,1464.02
116.2,-1.36607,1465.27
116.3,-1.36573,1466.50
116.4,-1.3653,1467.74
116.5,-1.36496,1469.00
116.6,-1.36453,1470.18
116.7,-1.36428,1471.43
116.8,-1.36385,1472.67
116.9,-1.36342,1473.95
117,-1.36317,1475.19
117.1,-1.36266,1476.47
117.2,-1.3624,1477.72
117.3,-1.36189,1478.92
117.4,-1.36155,1480.24
117.5,-1.3612,1481.51
117.6,-1.36078,1482.77
117.7,-1.36044,1484.04
117.8,-1.36001,1485.25
117.9,-1.35967,1486.54
118,-1.35933,1487.83
118.1,-1.3589,1489.04
118.2,-1.35856,1490.33
118.3,-1.35813,1491.53
118.4,-1.35779,1492.85
118.5,-1.35745,1494.03
118.6,-1.35702,1495.32
118.7,-1.35668,1496.46
118.8,-1.35634,1497.77
118.9,-1.35591,1499.05
119,-1.35548,1500.24
119.1,-1.35514,1501.52
119.2,-1.3548,1502.83
119.3,-1.35446,1504.07
119.4,-1.35403,1505.29
119.5,-1.35369,1506.57
119.6,-1.35326,1507.87
119.7,-1.35292,1509.09
119.8,-1.3525,1510.36
119.9,-1.35215,1511.62
120,-1.35173,1512.84
120.1,-1.35139,1514.16
120.2,-1.35104,1515.31
120.3,-1.35062,1516.64
120.4,-1.35028,1517.83
120.5,-1.34985,1519.11
120.6,-1.34959,1520.32
120.7,-1.34917,1521.56
120.8,-1.34882,1522.84
120.9,-1.3484,1524.05
121,-1.34806,1525.34
121.1,-1.34771,1526.65
121.2,-1.34729,1527.79
121.3,-1.34695,1529.12
121.4,-1.34652,1530.31
121.5,-1.34618,1531.59
121.6,-1.34584,1532.88
121.7,-1.34532,1534.08
121.8,-1.34507,1535.39
121.9,-1.34464,1536.58
122,-1.34421,1537.92
122.1,-1.34387,1539.16
122.2,-1.34353,1540.41
122.3,-1.34319,1541.74
122.4,-1.34268,1542.78
122.5,-1.34242,1544.14
122.6,-1.34199,1545.41
122.7,-1.34165,1546.61
122.8,-1.34131,1547.88
122.9,-1.34088,1549.15
123,-1.34054,1550.42
123.1,-1.3402,1551.61
123.2,-1.33977,1552.86
123.3,-1.33943,1554.17
123.4,-1.33901,1555.35
123.5,-1.33866,1556.64
123.6,-1.33832,1557.92
123.7,-1.3379,1559.11
123.8,-1.33755,1560.41
123.9,-1.33713,1561.64
124,-1.33679,1562.90
124.1,-1.33636,1564.19
124.2,-1.33602,1565.48
124.3,-1.33568,1566.71
124.4,-1.33525,1567.91
124.5,-1.33491,1569.25
124.6,-1.33457,1570.51
124.7,-1.33414,1571.71
124.8,-1.3338,1572.98
124.9,-1.33337,1574.19
125,-1.33303,1575.41
125.1,-1.33269,1576.72
125.2,-1.33226,1577.85
125.3,-1.33192,1579.16
125.4,-1.33149,1580.32
125.5,-1.33124,1581.61
125.6,-1.33081,1582.87
125.7,-1.33038,1584.13
125.8,-1.33013,1585.40
125.9,-1.3297,1586.66
126,-1.32927,1587.93
126.1,-1.32893,1589.16
126.2,-1.3285,1590.41
126.3,-1.32825,1591.77
126.4,-1.32782,1592.98
126.5,-1.32739,1594.23
126.6,-1.32705,1595.49
126.7,-1.32671,1596.76
126.8,-1.32637,1598.04
126.9,-1.32586,1599.21
127,-1.32552,1600.48
127.1,-1.32517,1601.70
127.2,-1.32483,1602.98
127.3,-1.32449,1604.20
127.4,-1.32406,1605.40
127.5,-1.32372,1606.73
127.6,-1.3233,1607.94
127.7,-1.32295,1609.25
127.8,-1.32261,1610.47
127.9,-1.32219,1611.68
128,-1.32184,1612.95
128.1,-1.32142,1614.21
128.2,-1.32108,1615.52
128.3,-1.32073,1616.81
128.4,-1.32031,1618.02
128.5,-1.31997,1619.28
128.6,-1.31954,1620.52
128.7,-1.3192,1621.80
128.8,-1.31886,1623.09
128.9,-1.31843,1624.30
129,-1.318,1625.56
129.1,-1.31766,1626.77
129.2,-1.31732,1628.04
129.3,-1.31698,1629.27
129.4,-1.31655,1630.47
129.5,-1.31621,1631.77
129.6,-1.31587,1633.03
129.7,-1.31544,1634.25
129.8,-1.3151,1635.55
129.9,-1.31467,1636.72
130,-1.31433,1638.03
130.1,-1.3139,1639.26
130.2,-1.31356,1640.51
130.3,-1.31322,1641.76
130.4,-1.31279,1643.08
130.5,-1.31245,1644.34
130.6,-1.31203,1645.56
130.7,-1.31168,1646.85
130.8,-1.31134,1648.13
130.9,-1.31092,1649.33
131,-1.31057,1650.61
131.1,-1.31015,1651.82
131.2,-1.30981,1653.06
131.3,-1.30946,1654.35
131.4,-1.30904,1655.57
131.5,-1.3087,1656.83
131.6,-1.30835,1658.06
131.7,-1.30793,1659.32
131.8,-1.30759,1660.57
131.9,-1.30724,1661.82
132,-1.30682,1663.01
132.1,-1.30648,1664.33
132.2,-1.30605,1665.52
132.3,-1.30571,1666.81
132.4,-1.30528,1668.00
132.5,-1.30494,1669.36
132.6,-1.3046,1670.61
132.7,-1.30417,1671.89
132.8,-1.30383,1673.15
132.9,-1.3034,1674.36
133,-1.30306,1675.65
133.1,-1.30272,1676.93
133.2,-1.30229,1678.13
133.3,-1.30195,1679.41
133.4,-1.30152,1680.62
133.5,-1.30118,1681.87
133.6,-1.30084,1683.12
133.7,-1.3005,1684.36
133.8,-1.30016,1685.67
133.9,-1.29973,1686.82
134,-1.29939,1688.11
134.1,-1.29905,1689.32
134.2,-1.29862,1690.54
134.3,-1.29828,1691.82
134.4,-1.29785,1693.06
134.5,-1.29751,1694.32
134.6,-1.29708,1695.62
134.7,-1.29674,1696.84
134.8,-1.2964,1698.16
134.9,-1.29597,1699.37
135,-1.29563,1700.61
135.1,-1.29521,1701.93
135.2,-1.29486,1703.13
135.3,-1.29452,1704.48
135.4,-1.2941,1705.66
135.5,-1.29376,1706.95
135.6,-1.29341,1708.23
135.7,-1.29299,1709.41
135.8,-1.29264,1710.70
135.9,-1.29222,1711.88
136,-1.29188,1713.11
136.1,-1.29154,1714.37
136.2,-1.29111,1715.59
136.3,-1.29077,1716.92
136.4,-1.29043,1718.15
136.5,-1.29,1719.37
136.6,-1.28966,1720.67
136.7,-1.28923,1721.91
136.8,-1.28889,1723.22
136.9,-1.28855,1724.44
137,-1.28812,1725.71
137.1,-1.28778,1726.97
137.2,-1.28735,1728.22
137.3,-1.28701,1729.51
137.4,-1.28667,1730.76
137.5,-1.28624,1731.99
137.6,-1.2859,1733.25
137.7,-1.28547,1734.49
137.8,-1.28522,1735.78
137.9,-1.28479,1736.97
138,-1.28445,1738.21
138.1,-1.28411,1739.46
138.2,-1.28368,1740.66
138.3,-1.28334,1741.98
138.4,-1.28291,1743.19
138.5,-1.28257,1744.45
138.6,-1.28223,1745.74
138.7,-1.2818,1746.97
138.8,-1.28146,1748.25
138.9,-1.28103,1749.46
139,-1.28069,1750.71
139.1,-1.28035,1752.03
139.2,-1.27992,1753.22
139.3,-1.27958,1754.54
139.4,-1.27916,1755.80
139.5,-1.27881,1756.97
139.6,-1.27847,1758.29
139.7,-1.27805,1759.59
139.8,-1.2777,1760.82
139.9,-1.27736,1762.08
140,-1.27694,1763.24
140.1,-1.27659,1764.55
140.2,-1.27625,1765.77
140.3,-1.27583,1767.05
140.4,-1.27548,1768.27
140.5,-1.27506,1769.47
140.6,-1.2748,1770.76
140.7,-1.27437,1772.02
140.8,-1.27403,1773.21
140.9,-1.27361,1774.50
141,-1.27326,1775.67
141.1,-1.27284,1777.02
141.2,-1.2725,1778.29
141.3,-1.27215,1779.52
141.4,-1.27181,1780.87
141.5,-1.27139,1782.09
141.6,-1.27104,1783.35
141.7,-1.27062,1784.60
141.8,-1.27019,1785.80
141.9,-1.26993,1787.07
142,-1.26951,1788.33
142.1,-1.26917,1789.57
142.2,-1.26874,1790.85
142.3,-1.2684,1792.05
142.4,-1.26806,1793.37
142.5,-1.26763,1794.50
142.6,-1.26729,1795.83
142.7,-1.26695,1797.07
142.8,-1.26652,1798.26
142.9,-1.26618,1799.48
143,-1.26584,1800.76
143.1,-1.26541,1802.01
143.2,-1.26515,1803.26
143.3,-1.26473,1804.50
143.4,-1.26438,1805.78
143.5,-1.26396,1807.04
143.6,-1.26362,1808.29
143.7,-1.26319,1809.62
143.8,-1.26285,1810.79
143.9,-1.26251,1812.13
144,-1.26208,1813.33
144.1,-1.26174,1814.65
144.2,-1.2614,1815.90
144.3,-1.26097,1817.08
144.4,-1.26063,1818.37
144.5,-1.2602,1819.59
144.6,-1.25986,1820.85
144.7,-1.25952,1822.16
144.8,-1.25909,1823.26
144.9,-1.25875,1824.62
145,-1.25841,1825.84
145.1,-1.25798,1827.07
145.2,-1.25764,1828.35
145.3,-1.25721,1829.57
145.4,-1.25687,1830.87
145.5,-1.25653,1832.15
145.6,-1.2561,1833.34
145.7,-1.25576,1834.63
145.8,-1.25533,1835.83
145.9,-1.25499,1837.21
146,-1.25465,1838.44
146.1,-1.25422,1839.65
146.2,-1.25388,1840.94
146.3,-1.25346,1842.14
146.4,-1.25311,1843.40
146.5,-1.25277,1844.68
146.6,-1.25235,1845.88
146.7,-1.25209,1847.20
146.8,-1.25166,1848.38
146.9,-1.25132,1849.61
147,-1.25098,1850.90
147.1,-1.25047,1852.14
147.2,-1.25021,1853.41
147.3,-1.24978,1854.72
147.4,-1.24944,1855.86
147.5,-1.2491,1857.19
147.6,-1.24867,1858.40
147.7,-1.24833,1859.66
147.8,-1.24799,1860.94
147.9,-1.24756,1862.15
148,-1.24722,1863.52
148.1,-1.2468,1864.72
148.2,-1.24637,1865.97
148.3,-1.24603,1867.23
148.4,-1.24569,1868.48
148.5,-1.24534,1869.73
148.6,-1.24492,1871.01
148.7,-1.24458,1872.24
148.8,-1.24423,1873.49
148.9,-1.24381,1874.69
149,-1.24347,1875.96
149.1,-1.24304,1877.16
149.2,-1.2427,1878.44
149.3,-1.24236,1879.71
149.4,-1.24193,1880.86
149.5,-1.24159,1882.22
149.6,-1.24125,1883.44
149.7,-1.24082,1884.67
149.8,-1.24048,1885.97
149.9,-1.24005,1887.18
150,-1.23971,1888.55
150.1,-1.23928,1889.78
150.2,-1.23894,1890.95
150.3,-1.2386,1892.30
150.4,-1.23817,1893.53
150.5,-1.23783,1894.75
150.6,-1.23749,1896.09
150.7,-1.23706,1897.24
150.8,-1.23672,1898.53
150.9,-1.23638,1899.78
151,-1.23595,1901.03
151.1,-1.23561,1902.29
151.2,-1.23518,1903.45
151.3,-1.23484,1904.73
151.4,-1.2345,1905.98
151.5,-1.23407,1907.13
151.6,-1.23373,1908.52
151.7,-1.23339,1909.76
151.8,-1.23296,1910.93
151.9,-1.23271,1912.21
152,-1.23228,1913.41
152.1,-1.23194,1914.75
152.2,-1.23151,1915.98
152.3,-1.23117,1917.29
152.4,-1.23083,1918.60
152.5,-1.2304,1919.77
152.6,-1.23006,1921.02
152.7,-1.22972,1922.33
152.8,-1.22929,1923.53
152.9,-1.22895,1924.84
153,-1.22853,1926.07
153.1,-1.22818,1927.30
153.2,-1.22784,1928.62
153.3,-1.22742,1929.77
153.4,-1.22707,1931.03
153.5,-1.22673,1932.24
153.6,-1.22631,1933.46
153.7,-1.22596,1934.77
153.8,-1.22562,1936.05
153.9,-1.2252,1937.35
154,-1.22485,1938.55
154.1,-1.22443,1939.72
154.2,-1.22409,1941.09
154.3,-1.22366,1942.25
154.4,-1.22332,1943.57
154.5,-1.22298,1944.84
154.6,-1.22255,1946.06
154.7,-1.22221,1947.40
154.8,-1.22187,1948.62
154.9,-1.22144,1949.84
155,-1.2211,1951.17
155.1,-1.22067,1952.30
155.2,-1.22033,1953.64
155.3,-1.21999,1954.81
155.4,-1.21956,1956.07
155.5,-1.2193,1957.38
155.6,-1.21888,1958.58
155.7,-1.21854,1959.87
155.8,-1.21811,1961.04
155.9,-1.21777,1962.27
156,-1.21743,1963.60
156.1,-1.217,1964.80
156.2,-1.21666,1966.05
156.3,-1.21632,1967.39
156.4,-1.21589,1968.54
156.5,-1.21555,1969.90
156.6,-1.21521,1971.15
156.7,-1.21478,1972.42
156.8,-1.21444,1973.66
156.9,-1.21401,1974.88
157,-1.21367,1976.18
157.1,-1.21333,1977.46
157.2,-1.2129,1978.65
157.3,-1.21256,1979.94
157.4,-1.21222,1981.14
157.5,-1.21188,1982.50
157.6,-1.21145,1983.63
157.7,-1.21111,1984.89
157.8,-1.21077,1986.21
157.9,-1.21034,1987.36
158,-1.21,1988.62
158.1,-1.20966,1989.88
158.2,-1.20923,1991.06
158.3,-1.20889,1992.39
158.4,-1.20855,1993.57
158.5,-1.20812,1994.84
158.6,-1.20778,1996.14
158.7,-1.20735,1997.36
158.8,-1.20701,1998.74
158.9,-1.20667,1999.99
159,-1.20624,2001.19
159.1,-1.2059,2002.47
159.2,-1.20547,2003.64
159.3,-1.20513,2005.01
159.4,-1.20479,2006.18
159.5,-1.20436,2007.51
159.6,-1.20411,2008.76
159.7,-1.20368,2009.95
159.8,-1.20334,2011.21
159.9,-1.20291,2012.45
160,-1.20257,2013.62
160.1,-1.20223,2014.92
160.2,-1.2018,2016.15
160.3,-1.20146,2017.31
160.4,-1.20112,2018.66
160.5,-1.20069,2019.87
160.6,-1.20035,2021.12
160.7,-1.20001,2022.39
160.8,-1.19958,2023.61
160.9,-1.19933,2024.93
161,-1.19881,2026.14
161.1,-1.19847,2027.49
161.2,-1.19813,2028.73
161.3,-1.19779,2029.94
161.4,-1.19736,2031.26
161.5,-1.19702,2032.46
161.6,-1.19668,2033.78
161.7,-1.19625,2035.09
161.8,-1.19591,2036.19
161.9,-1.19548,2037.57
162,-1.19514,2038.72
162.1,-1.1948,2040.02
162.2,-1.19446,2041.23
162.3,-1.19403,2042.40
162.4,-1.19369,2043.72
162.5,-1.19326,2044.94
162.6,-1.19292,2046.26
162.7,-1.19258,2047.54
162.8,-1.19215,2048.72
162.9,-1.19181,2050.01
163,-1.19139,2051.19
163.1,-1.19104,2052.50
163.2,-1.1907,2053.74
163.3,-1.19028,2054.97
163.4,-1.18993,2056.33
163.5,-1.18951,2057.50
163.6,-1.18916,2058.81
163.7,-1.18882,2060.06
163.8,-1.1884,2061.26
163.9,-1.18814,2062.58
164,-1.18771,2063.82
164.1,-1.18729,2065.03
164.2,-1.18703,2066.27
164.3,-1.1866,2067.49
164.4,-1.18626,2068.74
164.5,-1.18592,2070.01
164.6,-1.18549,2071.21
164.7,-1.18515,2072.50
164.8,-1.18473,2073.73
164.9,-1.18438,2075.03
165,-1.18404,2076.31
165.1,-1.18362,2077.50
165.2,-1.18327,2078.86
165.3,-1.18285,2080.04
165.4,-1.18251,2081.36
165.5,-1.18216,2082.58
165.6,-1.18174,2083.83
165.7,-1.1814,2085.12
165.8,-1.18105,2086.37
165.9,-1.18063,2087.57
166,-1.18029,2088.85
166.1,-1.17986,2090.10
166.2,-1.17952,2091.40
166.3,-1.17918,2092.61
166.4,-1.17875,2093.84
166.5,-1.17841,2095.10
166.6,-1.17807,2096.33
166.7,-1.17772,2097.54
166.8,-1.1773,2098.78
166.9,-1.17696,2100.05
167,-1.17661,2101.31
167.1,-1.17619,2102.51
167.2,-1.17585,2103.85
167.3,-1.1755,2105.10
167.4,-1.17499,2106.29
167.5,-1.17474,2107.60
167.6,-1.17431,2108.91
167.7,-1.17397,2110.04
167.8,-1.17363,2111.44
167.9,-1.1732,2112.62
168,-1.17286,2113.95
168.1,-1.17243,2115.16
168.2,-1.17209,2116.36
168.3,-1.17175,2117.66
168.4,-1.17132,2118.98
168.5,-1.17098,2120.14
168.6,-1.17064,2121.37
168.7,-1.17021,2122.58
168.8,-1.16995,2123.90
168.9,-1.16953,2125.09
169,-1.1691,2126.39
169.1,-1.16876,2127.60
169.2,-1.16842,2128.76
169.3,-1.16808,2130.13
169.4,-1.16765,2131.33
169.5,-1.16731,2132.59
169.6,-1.16697,2133.92
169.7,-1.16654,2135.08
169.8,-1.1662,2136.41
169.9,-1.16577,2137.63
170,-1.16543,2138.87
170.1,-1.16509,2140.24
170.2,-1.16466,2141.41
170.3,-1.16423,2142.71
170.4,-1.16398,2143.94
170.5,-1.16355,2145.23
170.6,-1.16321,2146.51
170.7,-1.16278,2147.64
170.8,-1.16244,2149.03
170.9,-1.1621,2150.21
171,-1.16167,2151.36
171.1,-1.16133,2152.62
171.2,-1.1609,2153.88
171.3,-1.16056,2155.09
171.4,-1.16022,2156.42
171.5,-1.15979,2157.61
171.6,-1.15945,2159.00
171.7,-1.15911,2160.18
171.8,-1.15868,2161.39
171.9,-1.15834,2162.70
172,-1.158,2163.98
172.1,-1.15757,2165.27
172.2,-1.15723,2166.46
172.3,-1.15681,2167.73
172.4,-1.15655,2169.01
172.5,-1.15604,2170.23
172.6,-1.15578,2171.50
172.7,-1.15535,2172.82
172.8,-1.15501,2173.95
172.9,-1.15467,2175.23
173,-1.15424,2176.51
173.1,-1.1539,2177.72
173.2,-1.15356,2178.96
173.3,-1.15313,2180.17
173.4,-1.15279,2181.47
173.5,-1.15237,2182.64
173.6,-1.15203,2183.92
173.7,-1.15168,2185.21
173.8,-1.15126,2186.45
173.9,-1.15092,2187.77
174,-1.15057,2188.95
174.1,-1.15015,2190.24
174.2,-1.14989,2191.59
174.3,-1.14938,2192.77
174.4,-1.14904,2194.08
174.5,-1.1487,2195.30
174.6,-1.14827,2196.47
174.7,-1.14793,2197.89
174.8,-1.14759,2199.02
174.9,-1.14716,2200.30
175,-1.14682,2201.59
175.1,-1.14648,2202.73
175.2,-1.14613,2204.08
175.3,-1.14571,2205.32
175.4,-1.14537,2206.49
175.5,-1.14502,2207.80
175.6,-1.1446,2208.98
175.7,-1.14426,2210.26
175.8,-1.14391,2211.48
175.9,-1.14349,2212.73
176,-1.14315,2213.99
176.1,-1.14272,2215.23
176.2,-1.14238,2216.58
176.3,-1.14204,2217.82
176.4,-1.14161,2219.04
176.5,-1.14127,2220.37
176.6,-1.14084,2221.54
176.7,-1.1405,2222.88
176.8,-1.14016,2224.13
176.9,-1.13973,2225.39
177,-1.13947,2226.64
177.1,-1.13896,2227.83
177.2,-1.13871,2229.15
177.3,-1.13828,2230.34
177.4,-1.13794,2231.55
177.5,-1.1376,2232.90
177.6,-1.13717,2233.98
177.7,-1.13683,2235.36
177.8,-1.13649,2236.51
177.9,-1.13606,2237.73
178,-1.13572,2239.06
178.1,-1.13529,2240.22
178.2,-1.13495,2241.59
178.3,-1.13461,2242.81
178.4,-1.13418,2243.98
178.5,-1.13392,2245.36
178.6,-1.13341,2246.53
178.7,-1.13307,2247.87
178.8,-1.13273,2249.18
178.9,-1.1323,2250.31
179,-1.13196,2251.68
179.1,-1.13153,2252.85
179.2,-1.13119,2254.09
179.3,-1.13085,2255.41
179.4,-1.13042,2256.67
179.5,-1.13008,2257.91
179.6,-1.12974,2259.12
179.7,-1.1294,2260.34
179.8,-1.12897,2261.62
179.9,-1.12855,2262.76
180,-1.1282,2264.07
180.1,-1.12786,2265.30
180.2,-1.12752,2266.58
180.3,-1.12709,2267.90
180.4,-1.12667,2269.08
180.5,-1.12641,2270.37
180.6,-1.12598,2271.66
180.7,-1.12564,2272.91
180.8,-1.12522,2274.21
180.9,-1.12479,2275.30
181,-1.12453,2276.69
181.1,-1.12411,2278.02
181.2,-1.12376,2279.24
181.3,-1.12342,2280.47
181.4,-1.123,2281.64
181.5,-1.12265,2282.93
181.6,-1.12231,2284.18
181.7,-1.12189,2285.40
181.8,-1.12154,2286.60
181.9,-1.12112,2287.85
182,-1.12078,2289.20
182.1,-1.12043,2290.42
182.2,-1.12001,2291.60
182.3,-1.11967,2292.91
182.4,-1.11924,2294.06
182.5,-1.1189,2295.45
182.6,-1.11856,2296.64
182.7,-1.11813,2297.90
182.8,-1.11779,2299.23
182.9,-1.11745,2300.35
183,-1.11702,2301.72
183.1,-1.11668,2302.92
183.2,-1.11625,2304.23
183.3,-1.11591,2305.52
183.4,-1.11548,2306.66
183.5,-1.11514,2308.01
183.6,-1.1148,2309.20
183.7,-1.11446,2310.49
183.8,-1.11403,2311.77
183.9,-1.11369,2312.93
184,-1.11335,2314.22
184.1,-1.11301,2315.52
184.2,-1.11258,2316.63
184.3,-1.11224,2317.96
184.4,-1.11181,2319.12
184.5,-1.11147,2320.49
184.6,-1.11113,2321.63
184.7,-1.1107,2322.96
184.8,-1.11036,2324.27
184.9,-1.10993,2325.41
185,-1.10959,2326.74
185.1,-1.10925,2328.04
185.2,-1.10882,2329.20
185.3,-1.10848,2330.55
185.4,-1.10805,2331.73
185.5,-1.10771,2333.09
185.6,-1.10737,2334.35
185.7,-1.10694,2335.46
185.8,-1.10669,2336.87
185.9,-1.10626,2338.05
186,-1.10583,2339.25
186.1,-1.10558,2340.56
186.2,-1.10507,2341.68
186.3,-1.10481,2343.03
186.4,-1.10438,2344.21
186.5,-1.10404,2345.48
186.6,-1.1037,2346.71
186.7,-1.10327,2347.87
186.8,-1.10293,2349.24
186.9,-1.10259,2350.48
187,-1.10216,2351.70
187.1,-1.10182,2353.02
187.2,-1.1014,2354.22
187.3,-1.10105,2355.59
187.4,-1.10063,2356.76
187.5,-1.10029,2357.99
187.6,-1.09994,2359.32
187.7,-1.09952,2360.48
187.8,-1.09918,2361.89
187.9,-1.09883,2363.10
188,-1.09841,2364.29
188.1,-1.09815,2365.55
188.2,-1.09764,2366.83
188.3,-1.0973,2368.05
188.4,-1.09696,2369.33
188.5,-1.09661,2370.53
188.6,-1.09627,2371.80
188.7,-1.09585,2372.96
188.8,-1.0955,2374.28
188.9,-1.09516,2375.57
189,-1.09474,2376.74
189.1,-1.09439,2378.07
189.2,-1.09397,2379.26
189.3,-1.09363,2380.60
189.4,-1.09328,2381.81
189.5,-1.09286,2383.09
189.6,-1.09252,2384.42
189.7,-1.09209,2385.55
189.8,-1.09175,2386.85
189.9,-1.09141,2388.09
190,-1.09098,2389.34
190.1,-1.09072,2390.67
190.2,-1.0903,2391.89
190.3,-1.08995,2393.08
190.4,-1.08961,2394.42
190.5,-1.08919,2395.53
190.6,-1.08884,2396.85
190.7,-1.0885,2398.08
190.8,-1.08808,2399.37
190.9,-1.08773,2400.61
191,-1.08731,2401.76
191.1,-1.08697,2403.13
191.2,-1.08662,2404.37
191.3,-1.0862,2405.55
191.4,-1.08586,2406.88
191.5,-1.08543,2408.07
191.6,-1.08509,2409.36
191.7,-1.08475,2410.70
191.8,-1.08432,2411.82
191.9,-1.08398,2413.20
192,-1.08355,2414.39
192.1,-1.08321,2415.67
192.2,-1.08287,2416.95
192.3,-1.08244,2418.21
192.4,-1.0821,2419.49
192.5,-1.08176,2420.70
192.6,-1.08142,2421.91
192.7,-1.08107,2423.20
192.8,-1.08065,2424.36
192.9,-1.08022,2425.67
193,-1.07988,2426.84
193.1,-1.07954,2428.21
193.2,-1.0792,2429.29
193.3,-1.07877,2430.59
193.4,-1.07843,2431.93
193.5,-1.07809,2433.15
193.6,-1.07766,2434.51
193.7,-1.07732,2435.67
193.8,-1.07689,2436.88
193.9,-1.07655,2438.32
194,-1.07621,2439.37
194.1,-1.07578,2440.70
194.2,-1.07544,2441.99
194.3,-1.07501,2443.22
194.4,-1.07467,2444.56
194.5,-1.07433,2445.71
194.6,-1.0739,2446.92
194.7,-1.07365,2448.29
194.8,-1.07322,2449.44
194.9,-1.07288,2450.65
195,-1.07254,2451.98
195.1,-1.07202,2453.14
195.2,-1.07177,2454.47
195.3,-1.07143,2455.64
195.4,-1.071,2456.89
195.5,-1.07066,2458.18
195.6,-1.07023,2459.40
195.7,-1.0698,2460.68
195.8,-1.06955,2461.93
195.9,-1.06912,2463.13
196,-1.06878,2464.44
196.1,-1.06835,2465.68
196.2,-1.06801,2466.99
196.3,-1.06767,2468.28
196.4,-1.06716,2469.45
196.5,-1.0669,2470.77
196.6,-1.06647,2472.02
196.7,-1.06613,2473.19
196.8,-1.06571,2474.58
196.9,-1.06536,2475.72
197,-1.06502,2477.02
197.1,-1.06468,2478.26
197.2,-1.06425,2479.44
197.3,-1.06391,2480.76
197.4,-1.06357,2481.99
197.5,-1.06315,2483.17
197.6,-1.06272,2484.55
197.7,-1.06238,2485.62
197.8,-1.06204,2487.01
197.9,-1.06169,2488.25
198,-1.06127,2489.52
198.1,-1.06093,2490.77
198.2,-1.0605,2492.01
198.3,-1.06016,2493.34
198.4,-1.05982,2494.57
198.5,-1.05939,2495.80
198.6,-1.05905,2497.07
198.7,-1.05862,2498.25
198.8,-1.05828,2499.63
198.9,-1.05794,2500.74
199,-1.05751,2502.08
199.1,-1.05725,2503.31
199.2,-1.05683,2504.49
199.3,-1.0564,2505.78
199.4,-1.05606,2507.01
199.5,-1.05563,2508.24
199.6,-1.05538,2509.60
199.7,-1.05495,2510.73
199.8,-1.05461,2512.01
199.9,-1.05427,2513.30
200,-1.05375,2514.49
200.1,-1.0535,2515.82
200.2,-1.05307,2517.03
200.3,-1.05264,2518.30
200.4,-1.0523,2519.62
200.5,-1.05196,2520.83
200.6,-1.05162,2522.09
200.7,-1.05119,2523.36
200.8,-1.05077,2524.56
200.9,-1.05051,2525.95
201,-1.05008,2527.09
201.1,-1.04974,2528.36
201.2,-1.0494,2529.64
201.3,-1.04897,2530.79
201.4,-1.04863,2532.13
201.5,-1.0482,2533.34
201.6,-1.04786,2534.55
201.7,-1.04752,2535.86
201.8,-1.04709,2537.00
201.9,-1.04675,2538.34
202,-1.04641,2539.64
202.1,-1.04598,2540.72
202.2,-1.04564,2542.07
202.3,-1.0453,2543.35
202.4,-1.04487,2544.62
202.5,-1.04453,2545.90
202.6,-1.04411,2547.01
202.7,-1.04376,2548.43
202.8,-1.04342,2549.65
202.9,-1.043,2550.84
203,-1.04265,2552.20
203.1,-1.04223,2553.39
203.2,-1.04189,2554.73
203.3,-1.04154,2555.86
203.4,-1.04112,2557.15
203.5,-1.04078,2558.45
203.6,-1.04035,2559.60
203.7,-1.04001,2560.89
203.8,-1.03967,2562.11
203.9,-1.03932,2563.32
204,-1.03898,2564.67
204.1,-1.03856,2565.84
204.2,-1.03821,2567.03
204.3,-1.03787,2568.39
204.4,-1.03745,2569.56
204.5,-1.0371,2570.96
204.6,-1.03668,2572.05
204.7,-1.03625,2573.44
204.8,-1.03599,2574.70
204.9,-1.03548,2575.82
205,-1.03523,2577.17
205.1,-1.03488,2578.43
205.2,-1.03446,2579.70
205.3,-1.03412,2581.03
205.4,-1.03369,2582.17
205.5,-1.03335,2583.50
205.6,-1.03301,2584.69
205.7,-1.03258,2585.90
205.8,-1.03224,2587.20
205.9,-1.03181,2588.40
206,-1.03147,2589.75
206.1,-1.03113,2590.79
206.2,-1.03079,2592.12
206.3,-1.03044,2593.52
206.4,-1.03002,2594.63
206.5,-1.02968,2595.92
206.6,-1.02925,2597.17
206.7,-1.02891,2598.37
206.8,-1.02848,2599.80
206.9,-1.02814,2600.90
207,-1.02771,2602.26
207.1,-1.02737,2603.50
207.2,-1.02694,2604.67
207.3,-1.0266,2606.12
207.4,-1.02626,2607.15
207.5,-1.02592,2608.49
207.6,-1.02558,2609.79
207.7,-1.02515,2610.97
207.8,-1.02481,2612.28
207.9,-1.02438,2613.47
208,-1.02404,2614.77
208.1,-1.0237,2615.93
208.2,-1.02327,2617.20
208.3,-1.02293,2618.52
208.4,-1.02259,2619.71
208.5,-1.02216,2620.97
208.6,-1.02182,2622.20
208.7,-1.02139,2623.45
208.8,-1.02114,2624.80
208.9,-1.02071,2626.00
209,-1.02037,2627.23
209.1,-1.02003,2628.54
209.2,-1.01952,2629.77
209.3,-1.01917,2631.11
209.4,-1.01883,2632.21
209.5,-1.01841,2633.59
209.6,-1.01815,2634.83
209.7,-1.01772,2636.03
209.8,-1.01738,2637.33
209.9,-1.01695,2638.52
210,-1.01661,2639.80
210.1,-1.01627,2641.06
210.2,-1.01584,2642.18
210.3,-1.01542,2643.59
210.4,-1.01516,2644.75
210.5,-1.01473,2645.94
210.6,-1.01439,2647.27
210.7,-1.01397,2648.42
210.8,-1.01362,2649.81
210.9,-1.0132,2650.99
211,-1.01286,2652.25
211.1,-1.01252,2653.57
211.2,-1.01209,2654.77
211.3,-1.01175,2656.02
211.4,-1.01141,2657.38
211.5,-1.01098,2658.55
211.6,-1.01064,2659.90
211.7,-1.01021,2661.11
211.8,-1.00987,2662.37
211.9,-1.00953,2663.64
212,-1.0091,2664.74
212.1,-1.00876,2666.15
212.2,-1.00833,2667.30
212.3,-1.00799,2668.60
212.4,-1.00765,2669.91
212.5,-1.00722,2671.08
212.6,-1.00697,2672.22
212.7,-1.00654,2673.57
212.8,-1.0062,2674.75
212.9,-1.00577,2676.03
213,-1.00543,2677.18
213.1,-1.00509,2678.55
213.2,-1.00466,2679.80
213.3,-1.00423,2681.06
213.4,-1.00398,2682.30
213.5,-1.00355,2683.54
213.6,-1.00312,2684.89
213.7,-1.00278,2686.07
213.8,-1.00235,2687.35
213.9,-1.0021,2688.64
214,-1.00167,2689.83
214.1,-1.00133,2691.17
214.2,-1.0009,2692.37
214.3,-1.00056,2693.65
214.4,-1.00022,2694.92
214.5,-0.99979,2696.13
214.6,-0.99945,2697.40
214.7,-0.99911,2698.60
214.8,-0.99868,2699.78
214.9,-0.99834,2701.19
215,-0.99792,2702.28
215.1,-0.99757,2703.65
215.2,-0.99715,2704.91
215.3,-0.99681,2706.04
215.4,-0.99646,2707.38
215.5,-0.99604,2708.63
215.6,-0.9957,2709.90
215.7,-0.99535,2711.21
215.8,-0.99493,2712.48
215.9,-0.99459,2713.68
216,-0.99416,2715.01
216.1,-0.99382,2716.20
216.2,-0.99348,2717.46
216.3,-0.99305,2718.64
216.4,-0.99271,2719.95
216.5,-0.99228,2721.18
216.6,-0.99194,2722.39
216.7,-0.9916,2723.67
216.8,-0.99117,2724.91
216.9,-0.99083,2726.12
217,-0.99049,2727.39
217.1,-0.99006,2728.72
217.2,-0.98972,2729.92
217.3,-0.98929,2731.11
217.4,-0.98895,2732.47
217.5,-0.98861,2733.67
217.6,-0.98818,2734.94
217.7,-0.98784,2736.21
217.8,-0.98741,2737.39
217.9,-0.98707,2738.75
218,-0.98673,2739.92
218.1,-0.9863,2741.23
218.2,-0.98596,2742.53
218.3,-0.98554,2743.68
218.4,-0.98519,2745.06
218.5,-0.98485,2746.29
218.6,-0.98443,2747.45
218.7,-0.98408,2748.78
218.8,-0.98366,2749.89
218.9,-0.98332,2751.15
219,-0.98297,2752.50
219.1,-0.98255,2753.67
219.2,-0.98221,2754.92
219.3,-0.98186,2756.19
219.4,-0.98144,2757.40
219.5,-0.9811,2758.75
219.6,-0.98075,2759.96
219.7,-0.98033,2761.27
219.8,-0.97999,2762.48
219.9,-0.97956,2763.62
220,-0.97922,2765.08
220.1,-0.97888,2766.23
220.2,-0.97845,2767.65
220.3,-0.97811,2768.75
220.4,-0.97768,2770.01
220.5,-0.97734,2771.33
220.6,-0.97691,2772.64
220.7,-0.97657,2773.64
220.8,-0.97623,2775.03
220.9,-0.9758,2776.26
221,-0.97546,2777.51
221.1,-0.97512,2778.80
221.2,-0.97469,2779.87
221.3,-0.97435,2781.29
221.4,-0.97401,2782.39
221.5,-0.97358,2783.73
221.6,-0.97324,2784.95
221.7,-0.97281,2786.23
221.8,-0.97256,2787.50
221.9,-0.97213,2788.71
222,-0.9717,2790.00
222.1,-0.97136,2791.31
222.2,-0.97094,2792.51
222.3,-0.97068,2793.81
222.4,-0.97025,2795.10
222.5,-0.96983,2796.28
222.6,-0.96957,2797.59
222.7,-0.96906,2798.87
222.8,-0.96872,2800.03
222.9,-0.96837,2801.37
223,-0.96795,2802.50
223.1,-0.96761,2803.87
223.2,-0.96726,2805.10
223.3,-0.96684,2806.23
223.4,-0.96658,2807.58
223.5,-0.96607,2808.68
223.6,-0.96573,2810.13
223.7,-0.96539,2811.31
223.8,-0.96496,2812.50
223.9,-0.96462,2813.86
224,-0.96428,2814.98
224.1,-0.96385,2816.27
224.2,-0.96351,2817.60
224.3,-0.96308,2818.86
224.4,-0.96274,2820.09
224.5,-0.96231,2821.39
224.6,-0.96197,2822.62
224.7,-0.96163,2823.86
224.8,-0.96129,2825.10
224.9,-0.96086,2826.39
225,-0.96052,2827.70
225.1,-0.96009,2828.77
225.2,-0.95975,2830.14
225.3,-0.95941,2831.39
225.4,-0.95898,2832.52
225.5,-0.95864,2833.83
225.6,-0.9583,2835.04
225.7,-0.95787,2836.37
225.8,-0.95753,2837.69
225.9,-0.9571,2838.82
226,-0.95676,2840.12
226.1,-0.95642,2841.39
226.2,-0.95599,2842.57
226.3,-0.95557,2843.99
226.4,-0.95531,2845.09
226.5,-0.95488,2846.39
226.6,-0.95454,2847.75
226.7,-0.95412,2848.84
226.8,-0.95377,2850.21
226.9,-0.95335,2851.48
227,-0.95292,2852.62
227.1,-0.95258,2853.99
227.2,-0.95224,2855.27
227.3,-0.95181,2856.45
227.4,-0.95155,2857.69
227.5,-0.95113,2858.90
227.6,-0.95079,2860.17
227.7,-0.95044,2861.44
227.8,-0.95002,2862.62
227.9,-0.94968,2863.99
228,-0.94925,2865.00
228.1,-0.94891,2866.41
228.2,-0.94857,2867.66
228.3,-0.94805,2868.84
228.4,-0.9478,2870.25
228.5,-0.94737,2871.46
228.6,-0.94694,2872.69
228.7,-0.9466,2874.00
228.8,-0.94618,2875.19
228.9,-0.94583,2876.58
229,-0.94549,2877.65
229.1,-0.94507,2878.88
229.2,-0.94472,2880.31
229.3,-0.94438,2881.50
229.4,-0.94396,2882.72
229.5,-0.94361,2884.04
229.6,-0.94319,2885.22
229.7,-0.94285,2886.50
229.8,-0.9425,2887.69
229.9,-0.94208,2888.81
230,-0.94174,2890.24
230.1,-0.94139,2891.32
230.2,-0.94097,2892.59
230.3,-0.94063,2893.95
230.4,-0.94028,2895.10
230.5,-0.93986,2896.43
230.6,-0.93952,2897.67
230.7,-0.93909,2898.90
230.8,-0.93875,2900.23
230.9,-0.93832,2901.52
231,-0.93798,2902.63
231.1,-0.93755,2904.05
231.2,-0.93721,2905.28
231.3,-0.93678,2906.51
231.4,-0.93644,2907.87
231.5,-0.93602,2908.90
231.6,-0.93567,2910.34
231.7,-0.93533,2911.58
231.8,-0.93491,2912.71
231.9,-0.93456,2914.07
232,-0.93422,2915.19
232.1,-0.9338,2916.50
232.2,-0.93345,2917.66
232.3,-0.93303,2918.90
232.4,-0.93269,2920.28
232.5,-0.93234,2921.55
232.6,-0.93192,2922.69
232.7,-0.93158,2924.11
232.8,-0.93115,2925.24
232.9,-0.93081,2926.47
233,-0.93038,2927.86
233.1,-0.93004,2929.05
233.2,-0.92961,2930.38
233.3,-0.92927,2931.55
233.4,-0.92884,2932.76
233.5,-0.9285,2934.11
233.6,-0.92816,2935.30
233.7,-0.92773,2936.57
233.8,-0.92731,2937.92
233.9,-0.92696,2938.96
234,-0.92662,2940.35
234.1,-0.92628,2941.58
234.2,-0.92585,2942.74
234.3,-0.92551,2944.02
234.4,-0.92517,2945.30
234.5,-0.92474,2946.45
234.6,-0.9244,2947.81
234.7,-0.92398,2949.01
234.8,-0.92364,2950.31
234.9,-0.92329,2951.59
235,-0.92287,2952.77
235.1,-0.92244,2954.12
235.2,-0.9221,2955.34
235.3,-0.92167,2956.56
235.4,-0.92133,2957.92
235.5,-0.92099,2959.15
235.6,-0.92056,2960.37
235.7,-0.92022,2961.70
235.8,-0.91979,2962.81
235.9,-0.91945,2964.18
236,-0.91911,2965.36
236.1,-0.91868,2966.56
236.2,-0.91834,2967.93
236.3,-0.918,2969.07
236.4,-0.91757,2970.33
236.5,-0.91723,2971.65
236.6,-0.9168,2972.75
236.7,-0.91646,2974.10
236.8,-0.91612,2975.30
236.9,-0.91569,2976.45
237,-0.91535,2977.91
237.1,-0.91493,2979.16
237.2,-0.91458,2980.33
237.3,-0.91424,2981.71
237.4,-0.91373,2982.77
237.5,-0.91347,2984.12
237.6,-0.91305,2985.49
237.7,-0.91262,2986.60
237.8,-0.91228,2988.02
237.9,-0.91194,2989.11
238,-0.91151,2990.34
238.1,-0.91117,2991.72
238.2,-0.91083,2992.88
238.3,-0.9104,2994.21
238.4,-0.91006,2995.51
238.5,-0.90963,2996.52
238.6,-0.90929,2997.93
238.7,-0.90895,2998.99
238.8,-0.90852,3000.28
238.9,-0.90818,3001.66
239,-0.90775,3002.77
239.1,-0.9075,3004.08
239.2,-0.90707,3005.38
239.3,-0.90664,3006.57
239.4,-0.9063,3007.98
239.5,-0.90596,3009.07
239.6,-0.90553,3010.32
239.7,-0.90519,3011.73
239.8,-0.90485,3012.91
239.9,-0.90442,3014.23
240,-0.90408,3015.41
240.1,-0.90366,3016.63
240.2,-0.90331,3017.93
240.3,-0.90297,3019.29
240.4,-0.90255,3020.36
240.5,-0.9022,3021.76
240.6,-0.90178,3022.96
240.7,-0.90144,3024.17
240.8,-0.90109,3025.40
240.9,-0.90067,3026.61
241,-0.90033,3027.96
241.1,-0.8999,3029.23
241.2,-0.89947,3030.35
241.3,-0.89913,3031.72
241.4,-0.89879,3032.94
241.5,-0.89836,3034.17
241.6,-0.89802,3035.49
241.7,-0.89759,3036.70
241.8,-0.89725,3038.02
241.9,-0.89691,3039.23
242,-0.89648,3040.37
242.1,-0.89614,3041.87
242.2,-0.8958,3042.95
242.3,-0.89537,3044.26
242.4,-0.89495,3045.55
242.5,-0.89461,3046.68
242.6,-0.89426,3048.02
242.7,-0.89384,3049.29
242.8,-0.8935,3050.43
242.9,-0.89315,3051.74
243,-0.89273,3052.96
243.1,-0.8923,3054.18
243.2,-0.89196,3055.46
243.3,-0.89162,3056.69
243.4,-0.89128,3057.99
243.5,-0.89085,3059.23
243.6,-0.89042,3060.47
243.7,-0.89008,3061.78
243.8,-0.88974,3063.06
243.9,-0.88931,3064.22
244,-0.88897,3065.66
244.1,-0.88854,3066.75
244.2,-0.8882,3068.10
244.3,-0.88786,3069.35
244.4,-0.88735,3070.47
244.5,-0.88701,3071.86
244.6,-0.88667,3073.09
244.7,-0.88624,3074.25
244.8,-0.8859,3075.59
244.9,-0.88556,3076.75
245,-0.88521,3077.98
245.1,-0.88487,3079.35
245.2,-0.88445,3080.45
245.3,-0.88402,3081.71
245.4,-0.88368,3083.08
245.5,-0.88325,3084.16
245.6,-0.88291,3085.53
245.7,-0.88248,3086.78
245.8,-0.88214,3087.96
245.9,-0.88171,3089.44
246,-0.88137,3090.42
246.1,-0.88095,3091.87
246.2,-0.88069,3093.15
246.3,-0.88018,3094.36
246.4,-0.87992,3095.62
246.5,-0.87949,3096.96
246.6,-0.87907,3098.10
246.7,-0.87873,3099.43
246.8,-0.87838,3100.55
246.9,-0.87796,3101.75
247,-0.87762,3103.08
247.1,-0.87719,3104.29
247.2,-0.87685,3105.51
247.3,-0.87642,3106.82
247.4,-0.87608,3107.88
247.5,-0.87574,3109.29
247.6,-0.8754,3110.55
247.7,-0.87497,3111.71
247.8,-0.87454,3113.15
247.9,-0.8742,3114.22
248,-0.87386,3115.55
248.1,-0.87343,3116.89
248.2,-0.87301,3118.09
248.3,-0.87266,3119.39
248.4,-0.87232,3120.63
248.5,-0.8719,3121.87
248.6,-0.87155,3123.16
248.7,-0.87113,3124.35
248.8,-0.87079,3125.64
248.9,-0.87036,3126.93
249,-0.87002,3128.06
249.1,-0.86959,3129.48
249.2,-0.86925,3130.57
249.3,-0.86882,3131.87
249.4,-0.86857,3133.10
249.5,-0.86814,3134.22
249.6,-0.86771,3135.71
249.7,-0.86737,3136.83
249.8,-0.86694,3138.09
249.9,-0.8666,3139.35
250,-0.86626,3140.63
250.1,-0.86583,3141.90
250.2,-0.86549,3143.19
250.3,-0.86506,3144.43
250.4,-0.86472,3145.70
250.5,-0.86438,3146.96
250.6,-0.86395,3148.20
250.7,-0.86361,3149.48
250.8,-0.86319,3150.75
250.9,-0.86284,3151.82
251,-0.86242,3153.25
251.1,-0.86208,3154.43
251.2,-0.86165,3155.64
251.3,-0.86131,3156.97
251.4,-0.86097,3158.03
251.5,-0.86063,3159.49
251.6,-0.8602,3160.70
251.7,-0.85977,3161.77
251.8,-0.85943,3163.19
251.9,-0.85909,3164.41
252,-0.85866,3165.61
252.1,-0.85823,3166.96
252.2,-0.85789,3168.06
252.3,-0.85747,3169.51
252.4,-0.85712,3170.73
252.5,-0.85678,3171.92
252.6,-0.85636,3173.31
252.7,-0.85601,3174.46
252.8,-0.85559,3175.71
252.9,-0.85525,3177.07
253,-0.85482,3178.23
253.1,-0.85448,3179.53
253.2,-0.85414,3180.78
253.3,-0.85371,3181.98
253.4,-0.85337,3183.27
253.5,-0.85303,3184.48
253.6,-0.8526,3185.65
253.7,-0.85226,3187.05
253.8,-0.85183,3188.11
253.9,-0.85149,3189.45
254,-0.85106,3190.64
254.1,-0.85072,3191.91
254.2,-0.85029,3193.27
254.3,-0.84995,3194.44
254.4,-0.84961,3195.69
254.5,-0.84918,3197.00
254.6,-0.84876,3198.28
254.7,-0.84842,3199.50
254.8,-0.84807,3200.83
254.9,-0.84765,3202.02
255,-0.84731,3203.40
255.1,-0.84688,3204.55
255.2,-0.84654,3205.83
255.3,-0.8462,3207.11
255.4,-0.84577,3208.28
255.5,-0.84534,3209.64
255.6,-0.84509,3210.73
255.7,-0.84457,3212.01
255.8,-0.84432,3213.21
255.9,-0.84389,3214.44
256,-0.84355,3215.73
256.1,-0.84312,3216.95
256.2,-0.8427,3218.20
256.3,-0.84235,3219.55
256.4,-0.84201,3220.64
256.5,-0.84159,3221.94
256.6,-0.84124,3223.34
256.7,-0.84082,3224.52
256.8,-0.84048,3225.78
256.9,-0.84013,3227.09
257,-0.83962,3228.23
257.1,-0.83928,3229.62
257.2,-0.83894,3230.89
257.3,-0.83851,3232.05
257.4,-0.83817,3233.36
257.5,-0.83783,3234.59
257.6,-0.8374,3235.74
257.7,-0.83706,3237.19
257.8,-0.83663,3238.21
257.9,-0.83629,3239.56
258,-0.83595,3240.77
258.1,-0.83552,3242.04
258.2,-0.83518,3243.33
258.3,-0.83484,3244.57
258.4,-0.83433,3245.83
258.5,-0.83407,3246.98
258.6,-0.83365,3248.32
258.7,-0.83322,3249.49
258.8,-0.83288,3250.91
258.9,-0.83245,3252.10
259,-0.83211,3253.35
259.1,-0.83177,3254.65
259.2,-0.83134,3255.86
259.3,-0.831,3257.18
259.4,-0.83057,3258.42
259.5,-0.83014,3259.61
259.6,-0.8298,3260.93
259.7,-0.82946,3262.08
259.8,-0.82912,3263.29
259.9,-0.82869,3264.69
260,-0.82827,3265.79
260.1,-0.82792,3267.09
260.2,-0.82758,3268.29
260.3,-0.82716,3269.52
260.4,-0.82681,3270.93
260.5,-0.82639,3272.07
260.6,-0.82605,3273.36
260.7,-0.8257,3274.70
260.8,-0.82519,3275.75
260.9,-0.82485,3277.22
261,-0.82451,3278.43
261.1,-0.82408,3279.63
261.2,-0.82374,3280.92
261.3,-0.8234,3282.24
261.4,-0.82297,3283.35
261.5,-0.82263,3284.73
261.6,-0.8222,3285.92
261.7,-0.82186,3287.14
261.8,-0.82144,3288.49
261.9,-0.82109,3289.64
262,-0.82067,3290.98
262.1,-0.82033,3292.17
262.2,-0.8199,3293.34
262.3,-0.81956,3294.64
262.4,-0.81922,3295.91
262.5,-0.81879,3297.02
262.6,-0.81845,3298.38
262.7,-0.81802,3299.69
262.8,-0.81768,3300.94
262.9,-0.81734,3302.18
263,-0.81691,3303.47
263.1,-0.81648,3304.69
263.2,-0.81606,3306.04
263.3,-0.81572,3307.08
263.4,-0.81537,3308.51
263.5,-0.81495,3309.82
263.6,-0.81452,3310.94
263.7,-0.81426,3312.26
263.8,-0.81384,3313.48
263.9,-0.81341,3314.77
264,-0.81307,3316.09
264.1,-0.81264,3317.20
264.2,-0.8123,3318.38
264.3,-0.81196,3319.73
264.4,-0.81153,3320.81
264.5,-0.81119,3322.13
264.6,-0.81076,3323.34
264.7,-0.81034,3324.63
264.8,-0.81008,3325.85
264.9,-0.80957,3327.07
265,-0.80923,3328.37
265.1,-0.8088,3329.76
265.2,-0.80846,3330.80
265.3,-0.80803,3332.24
265.4,-0.80769,3333.57
265.5,-0.80726,3334.67
265.6,-0.80692,3336.03
265.7,-0.80658,3337.25
265.8,-0.80615,3338.53
265.9,-0.80581,3339.86
266,-0.80538,3340.98
266.1,-0.80504,3342.26
266.2,-0.80462,3343.55
266.3,-0.80419,3344.72
266.4,-0.80393,3345.90
266.5,-0.80351,3347.26
266.6,-0.80308,3348.42
266.7,-0.80274,3349.88
266.8,-0.80231,3350.87
266.9,-0.80188,3352.29
267,-0.80154,3353.51
267.1,-0.8012,3354.74
267.2,-0.80077,3356.00
267.3,-0.80043,3357.38
267.4,-0.80001,3358.46
267.5,-0.79966,3359.87
267.6,-0.79924,3361.03
267.7,-0.79881,3362.30
267.8,-0.79847,3363.63
267.9,-0.79813,3364.79
268,-0.7977,3366.14
268.1,-0.79736,3367.40
268.2,-0.79693,3368.48
268.3,-0.79659,3369.83
268.4,-0.79625,3371.06
268.5,-0.79582,3372.29
268.6,-0.79548,3373.52
268.7,-0.79505,3374.81
268.8,-0.79471,3375.97
268.9,-0.79429,3377.33
269,-0.79394,3378.51
269.1,-0.79352,3379.77
269.2,-0.79318,3381.05
269.3,-0.79266,3382.22
269.4,-0.79241,3383.63
269.5,-0.79207,3384.86
269.6,-0.79155,3386.06
269.7,-0.79121,3387.42
269.8,-0.79087,3388.59
269.9,-0.79044,3389.84
270,-0.7901,3391.26
270.1,-0.78967,3392.27
270.2,-0.78933,3393.67
270.3,-0.78899,3394.90
270.4,-0.78848,3396.01
270.5,-0.78822,3397.38
270.6,-0.7878,3398.58
270.7,-0.78745,3399.86
270.8,-0.78703,3401.11
270.9,-0.78669,3402.21
271,-0.78634,3403.66
271.1,-0.78592,3404.76
271.2,-0.78549,3406.03
271.3,-0.78515,3407.37
271.4,-0.78472,3408.56
271.5,-0.78438,3409.90
271.6,-0.78395,3411.23
271.7,-0.78353,3412.32
271.8,-0.78319,3413.78
271.9,-0.78284,3414.90
272,-0.78242,3416.15
272.1,-0.78208,3417.47
272.2,-0.78165,3418.69
272.3,-0.78131,3419.84
272.4,-0.78088,3421.23
272.5,-0.78045,3422.30
272.6,-0.78011,3423.72
272.7,-0.77977,3424.83
272.8,-0.77934,3426.14
272.9,-0.779,3427.41
273,-0.77866,3428.49
273.1,-0.77823,3429.76
273.2,-0.77789,3431.19
273.3,-0.77747,3432.18
273.4,-0.77704,3433.63
273.5,-0.7767,3434.87
273.6,-0.77627,3436.04
273.7,-0.77593,3437.43
273.8,-0.7755,3438.64
273.9,-0.77516,3439.88
274,-0.77482,3441.29
274.1,-0.77439,3442.37
274.2,-0.77405,3443.80
274.3,-0.77362,3444.93
274.4,-0.77311,3446.15
274.5,-0.77285,3447.49
274.6,-0.77251,3448.68
274.7,-0.77209,3449.96
274.8,-0.77174,3451.19
274.9,-0.77132,3452.35
275,-0.77098,3453.67
275.1,-0.77055,3454.92
275.2,-0.77012,3456.11
275.3,-0.76978,3457.52
275.4,-0.76944,3458.58
275.5,-0.76901,3459.83
275.6,-0.76867,3461.32
275.7,-0.76824,3462.43
275.8,-0.7679,3463.66
275.9,-0.76748,3465.07
276,-0.76705,3466.21
276.1,-0.76671,3467.56
276.2,-0.76637,3468.78
276.3,-0.76585,3469.90
276.4,-0.76551,3471.34
276.5,-0.76517,3472.50
276.6,-0.76474,3473.76
276.7,-0.7644,3475.02
276.8,-0.76406,3476.25
276.9,-0.76363,3477.46
277,-0.76329,3478.75
277.1,-0.76287,3479.87
277.2,-0.76252,3481.17
277.3,-0.76218,3482.51
277.4,-0.76167,3483.59
277.5,-0.76133,3485.04
277.6,-0.76099,3486.27
277.7,-0.76056,3487.42
277.8,-0.76022,3488.85
277.9,-0.75979,3489.95
278,-0.75936,3491.30
278.1,-0.75902,3492.60
278.2,-0.7586,3493.72
278.3,-0.75826,3495.12
278.4,-0.75791,3496.35
278.5,-0.7574,3497.50
278.6,-0.75715,3498.89
278.7,-0.75672,3500.03
278.8,-0.75629,3501.21
278.9,-0.75595,3502.60
279,-0.75561,3503.77
279.1,-0.75518,3505.02
279.2,-0.75484,3506.31
279.3,-0.75441,3507.48
279.4,-0.75407,3508.75
279.5,-0.75364,3510.01
279.6,-0.75322,3511.22
279.7,-0.75288,3512.52
279.8,-0.75253,3513.79
279.9,-0.75202,3514.97
280,-0.75177,3516.33
280.1,-0.75134,3517.60
280.2,-0.75091,3518.81
280.3,-0.75057,3520.20
280.4,-0.75014,3521.38
280.5,-0.74972,3522.59
280.6,-0.74946,3523.86
280.7,-0.74895,3525.05
280.8,-0.74861,3526.43
280.9,-0.74827,3527.61
281,-0.74784,3528.85
281.1,-0.7475,3530.10
281.2,-0.74707,3531.26
281.3,-0.74664,3532.55
281.4,-0.74639,3533.77
281.5,-0.74596,3534.85
281.6,-0.74562,3536.26
281.7,-0.74519,3537.54
281.8,-0.74477,3538.74
281.9,-0.74442,3540.04
282,-0.744,3541.29
282.1,-0.74357,3542.52
282.2,-0.74323,3543.86
282.3,-0.7428,3545.09
282.4,-0.74246,3546.31
282.5,-0.74203,3547.69
282.6,-0.74169,3548.89
282.7,-0.74126,3550.12
282.8,-0.74092,3551.44
282.9,-0.7405,3552.52
283,-0.74015,3553.94
283.1,-0.73973,3555.21
283.2,-0.73939,3556.28
283.3,-0.73904,3557.59
283.4,-0.73862,3558.82
283.5,-0.73819,3560.10
283.6,-0.73785,3561.45
283.7,-0.73742,3562.60
283.8,-0.73708,3563.81
283.9,-0.73665,3565.23
284,-0.73623,3566.29
284.1,-0.73589,3567.69
284.2,-0.73554,3568.86
284.3,-0.73512,3570.15
284.4,-0.73478,3571.43
284.5,-0.73426,3572.64
284.6,-0.73392,3574.01
284.7,-0.73349,3575.12
284.8,-0.73315,3576.35
284.9,-0.73281,3577.73
285,-0.73239,3578.90
285.1,-0.73196,3580.21
285.2,-0.73162,3581.46
285.3,-0.73119,3582.59
285.4,-0.73085,3583.91
285.5,-0.73042,3585.03
285.6,-0.73008,3586.38
285.7,-0.72965,3587.71
285.8,-0.72931,3588.85
285.9,-0.72888,3590.16
286,-0.72854,3591.51
286.1,-0.72812,3592.52
286.2,-0.72769,3593.99
286.3,-0.72735,3595.30
286.4,-0.72692,3596.42
286.5,-0.72658,3597.72
286.6,-0.72615,3599.02
286.7,-0.72573,3600.21
286.8,-0.72538,3601.55
286.9,-0.72504,3602.74
287,-0.72462,3603.96
287.1,-0.72419,3605.34
287.2,-0.72385,3606.42
287.3,-0.72351,3607.79
287.4,-0.72308,3609.00
287.5,-0.72265,3610.16
287.6,-0.72231,3611.48
287.7,-0.72188,3612.72
287.8,-0.72154,3613.88
287.9,-0.72111,3615.23
288,-0.72077,3616.40
288.1,-0.72035,3617.67
288.2,-0.72001,3618.99
288.3,-0.71949,3620.08
288.4,-0.71924,3621.57
288.5,-0.71881,3622.78
288.6,-0.71838,3623.94
288.7,-0.71804,3625.29
288.8,-0.71761,3626.51
288.9,-0.71727,3627.72
289,-0.71685,3629.11
289.1,-0.71642,3630.25
289.2,-0.71608,3631.57
289.3,-0.71565,3632.78
289.4,-0.71531,3633.94
289.5,-0.71488,3635.36
289.6,-0.71454,3636.45
289.7,-0.7142,3637.64
289.8,-0.71377,3638.93
289.9,-0.71335,3640.08
290,-0.713,3641.51
290.1,-0.71266,3642.68
290.2,-0.71224,3643.89
290.3,-0.71189,3645.28
290.4,-0.71147,3646.47
290.5,-0.71104,3647.81
290.6,-0.71061,3649.11
290.7,-0.71027,3650.10
290.8,-0.70984,3651.54
290.9,-0.7095,3652.91
291,-0.70908,3653.98
291.1,-0.70865,3655.47
291.2,-0.70831,3656.46
291.3,-0.70788,3657.82
291.4,-0.70754,3659.12
291.5,-0.70711,3660.31
291.6,-0.70677,3661.57
291.7,-0.70643,3662.77
291.8,-0.706,3663.98
291.9,-0.70566,3665.24
292,-0.70515,3666.56
292.1,-0.70481,3667.62
292.2,-0.70447,3669.05
292.3,-0.70404,3670.24
292.4,-0.70361,3671.52
292.5,-0.70327,3672.97
292.6,-0.70284,3673.99
292.7,-0.7025,3675.31
292.8,-0.70208,3676.67
292.9,-0.70165,3677.86
293,-0.70131,3679.11
293.1,-0.70097,3680.44
293.2,-0.70045,3681.52
293.3,-0.70011,3682.95
293.4,-0.69977,3684.12
293.5,-0.69934,3685.32
293.6,-0.699,3686.67
293.7,-0.69857,3687.82
293.8,-0.69823,3689.03
293.9,-0.69781,3690.34
294,-0.69738,3691.51
294.1,-0.69704,3692.83
294.2,-0.69661,3694.10
294.3,-0.69618,3695.28
294.4,-0.69584,3696.52
294.5,-0.6955,3697.86
294.6,-0.69507,3699.10
294.7,-0.69465,3700.46
294.8,-0.69431,3701.63
294.9,-0.69388,3702.88
295,-0.69354,3704.23
295.1,-0.69303,3705.33
295.2,-0.69268,3706.73
295.3,-0.69234,3707.98
295.4,-0.69192,3709.07
295.5,-0.69157,3710.48
295.6,-0.69115,3711.67
295.7,-0.69072,3712.87
295.8,-0.69038,3714.21
295.9,-0.68995,3715.31
296,-0.68961,3716.64
296.1,-0.68927,3717.86
296.2,-0.68884,3718.99
296.3,-0.68841,3720.39
296.4,-0.68799,3721.58
296.5,-0.68765,3722.84
296.6,-0.68722,3724.24
296.7,-0.68679,3725.40
296.8,-0.68645,3726.61
296.9,-0.68602,3728.01
297,-0.6856,3729.16
297.1,-0.68526,3730.51
297.2,-0.68491,3731.74
297.3,-0.6844,3732.94
297.4,-0.68406,3734.21
297.5,-0.68372,3735.44
297.6,-0.68329,3736.76
297.7,-0.68295,3737.98
297.8,-0.68252,3739.12
297.9,-0.68218,3740.44
298,-0.68176,3741.78
298.1,-0.68133,3742.79
298.2,-0.68099,3744.05
298.3,-0.68056,3745.36
298.4,-0.68013,3746.55
298.5,-0.67979,3747.94
298.6,-0.67936,3749.17
298.7,-0.67902,3750.44
298.8,-0.6786,3751.67
298.9,-0.67817,3752.94
299,-0.67783,3754.21
299.1,-0.6774,3755.58
299.2,-0.67697,3756.66
299.3,-0.67663,3758.00
299.4,-0.67621,3759.19
299.5,-0.67578,3760.50
299.6,-0.67544,3761.85
299.7,-0.67501,3762.92
299.8,-0.67467,3764.26
299.9,-0.67424,3765.55
300,-0.6739,3766.62
300.1,-0.67347,3768.01
300.2,-0.67313,3769.22
300.3,-0.6727,3770.34
300.4,-0.67228,3771.79
300.5,-0.67185,3773.03
300.6,-0.67151,3774.12
300.7,-0.67108,3775.59
300.8,-0.67074,3776.68
300.9,-0.67031,3778.08
301,-0.66989,3779.32
301.1,-0.66946,3780.38
301.2,-0.66912,3781.82
301.3,-0.66878,3783.05
301.4,-0.66827,3784.22
301.5,-0.66792,3785.64
301.6,-0.66758,3786.76
301.7,-0.66716,3787.98
301.8,-0.66673,3789.41
301.9,-0.66639,3790.50
302,-0.66596,3791.78
302.1,-0.66562,3793.01
302.2,-0.66519,3794.19
302.3,-0.66485,3795.48
302.4,-0.66442,3796.80
302.5,-0.664,3797.90
302.6,-0.66365,3799.35
302.7,-0.66323,3800.52
302.8,-0.6628,3801.78
302.9,-0.66246,3803.08
303,-0.66203,3804.31
303.1,-0.66161,3805.53
303.2,-0.66126,3806.88
303.3,-0.66084,3808.10
303.4,-0.66041,3809.37
303.5,-0.66007,3810.64
303.6,-0.65964,3811.78
303.7,-0.6593,3813.13
303.8,-0.65887,3814.40
303.9,-0.65845,3815.51
304,-0.6581,3816.92
304.1,-0.65776,3818.11
304.2,-0.65725,3819.27
304.3,-0.65691,3820.60
304.4,-0.65657,3821.77
304.5,-0.65606,3822.99
304.6,-0.65571,3824.29
304.7,-0.65537,3825.54
304.8,-0.65495,3826.81
304.9,-0.65452,3828.17
305,-0.65409,3829.32
305.1,-0.65375,3830.67
305.2,-0.65332,3831.88
305.3,-0.6529,3833.06
305.4,-0.65256,3834.44
305.5,-0.65213,3835.68
305.6,-0.6517,3836.83
305.7,-0.65136,3838.19
305.8,-0.65093,3839.44
305.9,-0.65059,3840.59
306,-0.65016,3841.94
306.1,-0.64974,3843.09
306.2,-0.6494,3844.32
306.3,-0.64905,3845.62
306.4,-0.64863,3846.67
306.5,-0.64829,3848.08
306.6,-0.64777,3849.29
306.7,-0.64743,3850.49
306.8,-0.64709,3851.89
306.9,-0.64658,3853.01
307,-0.64624,3854.44
307.1,-0.64581,3855.66
307.2,-0.64538,3856.81
307.3,-0.64504,3858.24
307.4,-0.64461,3859.38
307.5,-0.64419,3860.62
307.6,-0.64385,3861.97
307.7,-0.64342,3863.20
307.8,-0.64308,3864.38
307.9,-0.64265,3865.76
308,-0.64222,3866.90
308.1,-0.6418,3868.15
308.2,-0.64146,3869.44
308.3,-0.64103,3870.48
308.4,-0.64069,3871.97
308.5,-0.64026,3873.14
308.6,-0.63983,3874.39
308.7,-0.63949,3875.56
308.8,-0.63907,3876.97
308.9,-0.63864,3878.13
309,-0.6383,3879.52
309.1,-0.63787,3880.62
309.2,-0.63744,3881.92
309.3,-0.6371,3883.29
309.4,-0.63667,3884.40
309.5,-0.63625,3885.73
309.6,-0.63591,3887.10
309.7,-0.63548,3888.17
309.8,-0.63514,3889.51
309.9,-0.63471,3890.74
310,-0.63428,3891.90
310.1,-0.63394,3893.29
310.2,-0.63352,3894.36
310.3,-0.63309,3895.66
310.4,-0.63275,3897.05
310.5,-0.63232,3898.10
310.6,-0.63189,3899.44
310.7,-0.63155,3900.78
310.8,-0.63104,3901.80
310.9,-0.6307,3903.29
311,-0.63027,3904.49
311.1,-0.62984,3905.59
311.2,-0.6295,3907.13
311.3,-0.62916,3908.19
311.4,-0.62865,3909.47
311.5,-0.62831,3910.82
311.6,-0.62788,3911.99
311.7,-0.62754,3913.29
311.8,-0.62711,3914.62
311.9,-0.62669,3915.73
312,-0.62634,3917.08
312.1,-0.62592,3918.32
312.2,-0.62549,3919.38
312.3,-0.62515,3920.79
312.4,-0.62472,3921.96
312.5,-0.62438,3923.19
312.6,-0.62395,3924.52
312.7,-0.62353,3925.62
312.8,-0.62318,3926.94
312.9,-0.62276,3928.31
313,-0.62233,3929.46
313.1,-0.6219,3930.90
313.2,-0.62148,3931.93
313.3,-0.62114,3933.17
313.4,-0.62071,3934.63
313.5,-0.62028,3935.80
313.6,-0.61994,3937.02
313.7,-0.6196,3938.33
313.8,-0.61909,3939.52
313.9,-0.61874,3940.91
314,-0.61832,3942.04
314.1,-0.61798,3943.27
314.2,-0.61755,3944.57
314.3,-0.61712,3945.75
314.4,-0.61678,3947.02
314.5,-0.61635,3948.26
314.6,-0.61593,3949.38
314.7,-0.61559,3950.76
314.8,-0.61507,3951.99
314.9,-0.61473,3953.14
315,-0.61431,3954.57
315.1,-0.61396,3955.69
315.2,-0.61354,3957.04
315.3,-0.61311,3958.36
315.4,-0.61268,3959.49
315.5,-0.61234,3960.87
315.6,-0.61191,3962.13
315.7,-0.61149,3963.33
315.8,-0.61115,3964.64
315.9,-0.61072,3965.87
316,-0.61021,3967.01
316.1,-0.60987,3968.44
316.2,-0.60952,3969.58
316.3,-0.6091,3970.71
316.4,-0.60876,3972.08
316.5,-0.60833,3973.27
316.6,-0.6079,3974.54
316.7,-0.60756,3975.93
316.8,-0.60713,3977.02
316.9,-0.60671,3978.40
317,-0.60628,3979.58
317.1,-0.60585,3980.78
317.2,-0.60551,3982.14
317.3,-0.60508,3983.44
317.4,-0.60466,3984.54
317.5,-0.60432,3985.95
317.6,-0.60389,3987.19
317.7,-0.60346,3988.29
317.8,-0.60312,3989.77
317.9,-0.60269,3990.80
318,-0.60227,3992.22
318.1,-0.60184,3993.41
318.2,-0.60141,3994.62
318.3,-0.60107,3995.85
318.4,-0.60073,3997.11
318.5,-0.60022,3998.28
318.6,-0.59988,3999.70
318.7,-0.59953,4000.89
318.8,-0.59902,4002.11
318.9,-0.59868,4003.41
319,-0.59825,4004.59
319.1,-0.59791,4005.95
319.2,-0.59749,4007.23
319.3,-0.59706,4008.35
319.4,-0.59663,4009.76
319.5,-0.59629,4010.95
319.6,-0.59578,4012.17
319.7,-0.59544,4013.50
319.8,-0.59501,4014.71
319.9,-0.59467,4015.98
320,-0.59424,4017.25
320.1,-0.59373,4018.28
320.2,-0.59347,4019.76
320.3,-0.59305,4020.96
320.4,-0.59262,4022.12
320.5,-0.59219,4023.49
320.6,-0.59185,4024.56
320.7,-0.59142,4025.92
320.8,-0.591,4027.16
320.9,-0.59066,4028.29
321,-0.59023,4029.69
321.1,-0.5898,4030.94
321.2,-0.58937,4032.18
321.3,-0.58903,4033.49
321.4,-0.58852,4034.68
321.5,-0.58818,4035.89
321.6,-0.58775,4037.35
321.7,-0.58733,4038.49
321.8,-0.58698,4039.75
321.9,-0.58656,4041.10
322,-0.58613,4042.16
322.1,-0.58579,4043.57
322.2,-0.58536,4044.74
322.3,-0.58493,4045.97
322.4,-0.58459,4047.30
322.5,-0.58417,4048.40
322.6,-0.58374,4049.71
322.7,-0.5834,4050.96
322.8,-0.58289,4052.04
322.9,-0.58263,4053.45
323,-0.58212,4054.64
323.1,-0.58169,4055.91
323.2,-0.58135,4057.22
323.3,-0.58092,4058.49
323.4,-0.58049,4059.71
323.5,-0.58007,4061.11
323.6,-0.57964,4062.27
323.7,-0.5793,4063.54
323.8,-0.57887,4064.85
323.9,-0.57845,4065.97
324,-0.5781,4067.38
324.1,-0.57768,4068.55
324.2,-0.57725,4069.69
324.3,-0.57691,4071.06
324.4,-0.57648,4072.19
324.5,-0.57606,4073.45
324.6,-0.57563,4074.80
324.7,-0.5752,4075.82
324.8,-0.57486,4077.23
324.9,-0.57443,4078.59
325,-0.57401,4079.59
325.1,-0.57366,4081.00
325.2,-0.57324,4082.30
325.3,-0.57273,4083.56
325.4,-0.57238,4084.88
325.5,-0.57196,4086.01
325.6,-0.57153,4087.35
325.7,-0.57119,4088.61
325.8,-0.57068,4089.70
325.9,-0.57033,4091.10
326,-0.56991,4092.33
326.1,-0.56948,4093.47
326.2,-0.56914,4094.86
326.3,-0.56871,4096.04
326.4,-0.56829,4097.16
326.5,-0.56794,4098.61
326.6,-0.56752,4099.74
326.7,-0.56709,4101.06
326.8,-0.56666,4102.37
326.9,-0.56632,4103.44
327,-0.5659,4104.86
327.1,-0.56547,4106.06
327.2,-0.56496,4107.20
327.3,-0.56461,4108.70
327.4,-0.56427,4109.87
327.5,-0.56376,4111.02
327.6,-0.56342,4112.42
327.7,-0.56299,4113.69
327.8,-0.56248,4114.77
327.9,-0.56222,4116.13
328,-0.5618,4117.36
328.1,-0.56137,4118.58
328.2,-0.56094,4119.93
328.3,-0.56052,4121.11
328.4,-0.56017,4122.37
328.5,-0.55975,4123.65
328.6,-0.55932,4124.74
328.7,-0.55889,4126.07
328.8,-0.55847,4127.31
328.9,-0.55804,4128.50
329,-0.5577,4129.82
329.1,-0.55727,4131.09
329.2,-0.55684,4132.36
329.3,-0.55642,4133.72
329.4,-0.55599,4134.89
329.5,-0.55565,4136.17
329.6,-0.55522,4137.42
329.7,-0.55471,4138.52
329.8,-0.55437,4140.01
329.9,-0.55394,4141.19
330,-0.55352,4142.32
330.1,-0.55317,4143.72
330.2,-0.55275,4144.88
330.3,-0.55232,4146.13
330.4,-0.55198,4147.48
330.5,-0.55155,4148.55
330.6,-0.55112,4149.90
330.7,-0.5507,4151.09
330.8,-0.55036,4152.27
330.9,-0.54993,4153.62
331,-0.5495,4154.87
331.1,-0.54908,4156.12
331.2,-0.54865,4157.48
331.3,-0.54822,4158.58
331.4,-0.54788,4159.99
331.5,-0.54745,4161.28
331.6,-0.54703,4162.34
331.7,-0.5466,4163.74
331.8,-0.54626,4164.91
331.9,-0.54575,4166.17
332,-0.5454,4167.49
332.1,-0.54498,4168.69
332.2,-0.54464,4170.00
332.3,-0.54421,4171.25
332.4,-0.54378,4172.29
332.5,-0.54335,4173.67
332.6,-0.54293,4174.89
332.7,-0.5425,4176.14
332.8,-0.54216,4177.50
332.9,-0.54173,4178.66
333,-0.54122,4179.96
333.1,-0.54088,4181.23
333.2,-0.54045,4182.43
333.3,-0.54011,4183.72
333.4,-0.5396,4185.00
333.5,-0.53917,4186.15
333.6,-0.53883,4187.54
333.7,-0.5384,4188.72
333.8,-0.53798,4189.94
333.9,-0.53763,4191.28
334,-0.53712,4192.42
334.1,-0.53678,4193.76
334.2,-0.53635,4195.03
334.3,-0.53584,4196.15
334.4,-0.53559,4197.49
334.5,-0.53516,4198.65
334.6,-0.53465,4199.82
334.7,-0.5343,4201.32
334.8,-0.53396,4202.40
334.9,-0.53345,4203.76
335,-0.53311,4204.93
335.1,-0.53268,4206.20
335.2,-0.53226,4207.56
335.3,-0.53183,4208.77
335.4,-0.53132,4209.97
335.5,-0.53106,4211.36
335.6,-0.53063,4212.53
335.7,-0.53012,4213.73
335.8,-0.52978,4215.08
335.9,-0.52935,4216.31
336,-0.52893,4217.51
336.1,-0.52858,4218.85
336.2,-0.52807,4219.93
336.3,-0.52773,4221.24
336.4,-0.5273,4222.57
336.5,-0.52688,4223.72
336.6,-0.52645,4224.99
336.7,-0.52611,4226.28
336.8,-0.5256,4227.40
336.9,-0.52525,4228.79
337,-0.52483,4230.03
337.1,-0.5244,4231.20
337.2,-0.52397,4232.56
337.3,-0.52355,4233.76
337.4,-0.52321,4234.99
337.5,-0.52278,4236.41
337.6,-0.52235,4237.55
337.7,-0.52192,4238.89
337.8,-0.5215,4240.07
337.9,-0.52099,4241.22
338,-0.52064,4242.69
338.1,-0.5203,4243.81
338.2,-0.51979,4245.03
338.3,-0.51945,4246.32
338.4,-0.51902,4247.53
338.5,-0.51859,4248.77
338.6,-0.51825,4250.00
338.7,-0.51774,4251.13
338.8,-0.5174,4252.47
338.9,-0.51697,4253.77
339,-0.51646,4254.86
339.1,-0.51612,4256.41
339.2,-0.51578,4257.53
339.3,-0.51527,4258.80
339.4,-0.51492,4260.11
339.5,-0.51441,4261.28
339.6,-0.51407,4262.70
339.7,-0.51364,4263.94
339.8,-0.51322,4265.08
339.9,-0.51279,4266.43
340,-0.51245,4267.58
340.1,-0.51194,4268.85
340.2,-0.51159,4270.19
340.3,-0.51117,4271.22
340.4,-0.51074,4272.50
340.5,-0.51031,4273.91
340.6,-0.5098,4275.02
340.7,-0.50946,4276.41
340.8,-0.50912,4277.63
340.9,-0.50861,4278.74
341,-0.50826,4280.20
341.1,-0.50784,4281.44
341.2,-0.50732,4282.57
341.3,-0.50698,4284.02
341.4,-0.50656,4285.17
341.5,-0.50613,4286.27
341.6,-0.5057,4287.76
341.7,-0.50528,4288.82
341.8,-0.50485,4290.20
341.9,-0.50451,4291.52
342,-0.504,4292.53
342.1,-0.50365,4293.92
342.2,-0.50323,4295.10
342.3,-0.50271,4296.30
342.4,-0.50237,4297.69
342.5,-0.50203,4298.81
342.6,-0.50152,4300.08
342.7,-0.50118,4301.42
342.8,-0.50067,4302.53
342.9,-0.50024,4303.98
343,-0.4999,4305.23
343.1,-0.49938,4306.30
343.2,-0.49904,4307.86
343.3,-0.49862,4308.94
343.4,-0.4981,4310.18
343.5,-0.49776,4311.52
343.6,-0.49734,4312.69
343.7,-0.49691,4313.97
343.8,-0.49648,4315.23
343.9,-0.49605,4316.41
344,-0.49571,4317.75
344.1,-0.49529,4318.98
344.2,-0.49477,4320.09
344.3,-0.49435,4321.48
344.4,-0.49401,4322.58
344.5,-0.49349,4323.85
344.6,-0.49315,4325.22
344.7,-0.49272,4326.34
344.8,-0.4923,4327.68
344.9,-0.49187,4329.00
345,-0.49136,4330.14
345.1,-0.4911,4331.52
345.2,-0.49059,4332.74
345.3,-0.49016,4333.88
345.4,-0.48974,4335.37
345.5,-0.4894,4336.49
345.6,-0.48888,4337.73
345.7,-0.48854,4339.02
345.8,-0.48811,4340.24
345.9,-0.48769,4341.51
346,-0.48726,4342.77
346.1,-0.48683,4343.88
346.2,-0.48649,4345.25
346.3,-0.48598,4346.50
346.4,-0.48555,4347.51
346.5,-0.48521,4348.99
346.6,-0.4847,4350.21
346.7,-0.48427,4351.40
346.8,-0.48393,4352.68
346.9,-0.4835,4353.99
347,-0.48299,4355.17
347.1,-0.48256,4356.54
347.2,-0.48222,4357.72
347.3,-0.4818,4359.08
347.4,-0.48137,4360.28
347.5,-0.48086,4361.47
347.6,-0.48052,4362.87
347.7,-0.48009,4364.08
347.8,-0.47958,4365.16
347.9,-0.47923,4366.60
348,-0.47889,4367.70
348.1,-0.47838,4368.89
348.2,-0.47795,4370.28
348.3,-0.47753,4371.48
348.4,-0.4771,4372.74
348.5,-0.47667,4374.10
348.6,-0.47625,4375.17
348.7,-0.47582,4376.57
348.8,-0.47539,4377.77
348.9,-0.47497,4379.02
349,-0.47454,4380.36
349.1,-0.4742,4381.55
349.2,-0.47369,4382.81
349.3,-0.47334,4384.14
349.4,-0.47283,4385.25
349.5,-0.47249,4386.64
349.6,-0.47206,4387.84
349.7,-0.47155,4388.97
349.8,-0.47121,4390.37
349.9,-0.47087,4391.58
350,-0.47036,4392.68
350.1,-0.46993,4394.10
350.2,-0.4695,4395.25
350.3,-0.46907,4396.50
350.4,-0.46865,4397.89
350.5,-0.46822,4398.98
350.6,-0.46779,4400.35
350.7,-0.46737,4401.56
350.8,-0.46685,4402.77
350.9,-0.46651,4404.22
351,-0.46617,4405.35
351.1,-0.46566,4406.57
351.2,-0.46523,4407.99
351.3,-0.46481,4409.03
351.4,-0.46438,4410.39
351.5,-0.46395,4411.72
351.6,-0.46353,4412.83
351.7,-0.4631,4414.18
351.8,-0.46276,4415.36
351.9,-0.46224,4416.54
352,-0.4619,4417.83
352.1,-0.46148,4419.06
352.2,-0.46096,4420.25
352.3,-0.46062,4421.61
352.4,-0.4602,4422.79
352.5,-0.45968,4424.15
352.6,-0.45934,4425.43
352.7,-0.45883,4426.55
352.8,-0.45849,4427.97
352.9,-0.45806,4429.25
353,-0.45755,4430.34
353.1,-0.45721,4431.72
353.2,-0.45678,4432.93
353.3,-0.45635,4434.16
353.4,-0.45593,4435.44
353.5,-0.45541,4436.54
353.6,-0.45507,4437.89
353.7,-0.45465,4439.24
353.8,-0.45413,4440.25
353.9,-0.45379,4441.68
354,-0.45336,4442.79
354.1,-0.45285,4444.06
354.2,-0.45251,4445.35
354.3,-0.45208,4446.46
354.4,-0.45166,4447.92
354.5,-0.45123,4449.08
354.6,-0.45072,4450.34
354.7,-0.45038,4451.73
354.8,-0.44995,4452.89
354.9,-0.44944,4454.22
355,-0.4491,4455.50
355.1,-0.44858,4456.57
355.2,-0.44824,4458.03
355.3,-0.44782,4459.23
355.4,-0.4473,4460.38
355.5,-0.44696,4461.82
355.6,-0.44653,4462.90
355.7,-0.44611,4464.20
355.8,-0.44568,4465.42
355.9,-0.44517,4466.56
356,-0.44483,4467.95
356.1,-0.4444,4469.23
356.2,-0.44389,4470.40
356.3,-0.44346,4471.78
356.4,-0.44303,4472.92
356.5,-0.44261,4474.24
356.6,-0.44218,4475.56
356.7,-0.44175,4476.65
356.8,-0.44133,4478.04
356.9,-0.44098,4479.26
357,-0.44039,4480.44
357.1,-0.44005,4481.79
357.2,-0.43962,4483.03
357.3,-0.43919,4484.16
357.4,-0.43877,4485.51
357.5,-0.43834,4486.62
357.6,-0.43791,4487.94
357.7,-0.43748,4489.22
357.8,-0.43706,4490.36
357.9,-0.43663,4491.79
358,-0.4362,4492.93
358.1,-0.43578,4494.27
358.2,-0.43535,4495.51
358.3,-0.43484,4496.62
358.4,-0.43441,4498.11
358.5,-0.43407,4499.25
358.6,-0.43356,4500.50
358.7,-0.43313,4501.85
358.8,-0.4327,4502.99
358.9,-0.43228,4504.33
359,-0.43185,4505.55
359.1,-0.43134,4506.82
359.2,-0.431,4508.09
359.3,-0.43057,4509.25
359.4,-0.43014,4510.52
359.5,-0.42971,4511.78
359.6,-0.42929,4512.91
359.7,-0.42886,4514.22
359.8,-0.42843,4515.44
359.9,-0.42792,4516.65
360,-0.42749,4518.05
360.1,-0.42707,4519.30
360.2,-0.42656,4520.46
360.3,-0.42621,4521.88
360.4,-0.42579,4523.02
360.5,-0.42536,4524.30
360.6,-0.42493,4525.67
360.7,-0.42442,4526.77
360.8,-0.42408,4528.23
360.9,-0.42365,4529.35
361,-0.42306,4530.51
361.1,-0.42271,4531.88
361.2,-0.42229,4533.01
361.3,-0.42186,4534.25
361.4,-0.42143,4535.58
361.5,-0.42101,4536.72
361.6,-0.42058,4538.02
361.7,-0.42015,4539.27
361.8,-0.41964,4540.44
361.9,-0.4193,4541.82
362,-0.41887,4543.04
362.1,-0.41836,4544.22
362.2,-0.41793,4545.63
362.3,-0.41759,4546.80
362.4,-0.41708,4548.08
362.5,-0.41665,4549.42
362.6,-0.41622,4550.53
362.7,-0.4158,4551.91
362.8,-0.41537,4553.19
362.9,-0.41486,4554.18
363,-0.41452,4555.67
363.1,-0.41409,4556.78
363.2,-0.41358,4558.05
363.3,-0.41315,4559.41
363.4,-0.41272,4560.41
363.5,-0.4123,4561.80
363.6,-0.41187,4563.11
363.7,-0.41136,4564.23
363.8,-0.41102,4565.67
363.9,-0.41059,4566.84
364,-0.41008,4568.10
364.1,-0.40974,4569.48
364.2,-0.40922,4570.58
364.3,-0.4088,4571.87
364.4,-0.40837,4573.22
364.5,-0.40786,4574.38
364.6,-0.40752,4575.78
364.7,-0.40709,4576.91
364.8,-0.40658,4578.07
364.9,-0.40624,4579.48
365,-0.40581,4580.53
365.1,-0.4053,4581.85
365.2,-0.40495,4583.17
365.3,-0.40444,4584.26
365.4,-0.40402,4585.67
365.5,-0.40359,4586.93
365.6,-0.40308,4588.01
365.7,-0.40273,4589.45
365.8,-0.40231,4590.62
365.9,-0.4018,4591.87
366,-0.40137,4593.29
366.1,-0.40094,4594.37
366.2,-0.40052,4595.74
366.3,-0.40009,4597.02
366.4,-0.39958,4598.14
366.5,-0.39923,4599.54
366.6,-0.39881,4600.72
366.7,-0.3983,4601.92
366.8,-0.39795,4603.27
366.9,-0.39744,4604.24
367,-0.3971,4605.67
367.1,-0.39667,4606.93
367.2,-0.39616,4608.07
367.3,-0.39573,4609.47
367.4,-0.39531,4610.58
367.5,-0.39479,4611.97
367.6,-0.39437,4613.24
367.7,-0.39394,4614.35
367.8,-0.39351,4615.77
367.9,-0.39309,4616.98
368,-0.39257,4618.16
368.1,-0.39215,4619.59
368.2,-0.39181,4620.81
368.3,-0.39129,4622.01
368.4,-0.39087,4623.33
368.5,-0.39035,4624.39
368.6,-0.39001,4625.77
368.7,-0.38959,4626.99
368.8,-0.38907,4628.16
368.9,-0.38873,4629.50
369,-0.38831,4630.60
369.1,-0.38779,4631.89
369.2,-0.38737,4633.23
369.3,-0.38685,4634.26
369.4,-0.38651,4635.73
369.5,-0.386,4636.91
369.6,-0.38557,4638.10
369.7,-0.38515,4639.55
369.8,-0.38463,4640.68
369.9,-0.38429,4642.08
370,-0.38387,4643.36
370.1,-0.38327,4644.43
370.2,-0.38293,4645.84
370.3,-0.3825,4647.05
370.4,-0.38199,4648.21
370.5,-0.38156,4649.59
370.6,-0.38113,4650.66
370.7,-0.38071,4652.08
370.8,-0.38028,4653.19
370.9,-0.37977,4654.40
371,-0.37934,4655.87
371.1,-0.379,4656.91
371.2,-0.37849,4658.18
371.3,-0.37797,4659.64
371.4,-0.37755,4660.71
371.5,-0.37712,4662.15
371.6,-0.37669,4663.28
371.7,-0.37618,4664.53
371.8,-0.37576,4665.92
371.9,-0.37533,4667.06
372,-0.37482,4668.30
372.1,-0.37447,4669.60
372.2,-0.37396,4670.78
372.3,-0.37362,4672.00
372.4,-0.37311,4673.27
372.5,-0.3726,4674.47
372.6,-0.37225,4675.82
372.7,-0.37183,4677.03
372.8,-0.37123,4678.20
372.9,-0.37089,4679.61
373,-0.37038,4680.77
373.1,-0.36995,4682.10
373.2,-0.36952,4683.34
373.3,-0.36901,4684.50
373.4,-0.36858,4685.88
373.5,-0.36816,4687.20
373.6,-0.36764,4688.22
373.7,-0.36722,4689.77
373.8,-0.36679,4690.81
373.9,-0.36628,4692.01
374,-0.36594,4693.46
374.1,-0.36542,4694.58
374.2,-0.365,4695.87
374.3,-0.36457,4697.11
374.4,-0.36406,4698.16
374.5,-0.36372,4699.60
374.6,-0.36329,4700.85
374.7,-0.36278,4701.96
374.8,-0.36227,4703.46
374.9,-0.36184,4704.45
375,-0.36141,4705.92
375.1,-0.36098,4707.19
375.2,-0.36047,4708.29
375.3,-0.36005,4709.73
375.4,-0.35962,4710.90
375.5,-0.35911,4712.17
375.6,-0.35868,4713.52
375.7,-0.35817,4714.57
375.8,-0.35783,4715.97
375.9,-0.3574,4717.16
376,-0.35689,4718.27
376.1,-0.35646,4719.67
376.2,-0.35603,4720.79
376.3,-0.35552,4722.00
376.4,-0.35518,4723.39
376.5,-0.35467,4724.50
376.6,-0.35424,4725.83
376.7,-0.35373,4727.11
376.8,-0.3533,4728.32
376.9,-0.35287,4729.74
377,-0.35245,4730.84
377.1,-0.35193,4732.15
377.2,-0.35151,4733.45
377.3,-0.351,4734.60
377.4,-0.35065,4736.00
377.5,-0.35023,4737.25
377.6,-0.34963,4738.35
377.7,-0.34929,4739.77
377.8,-0.34886,4740.91
377.9,-0.34835,4742.02
378,-0.34792,4743.47
378.1,-0.34741,4744.58
378.2,-0.34698,4745.90
378.3,-0.34656,4747.21
378.4,-0.34604,4748.35
378.5,-0.34562,4749.81
378.6,-0.34519,4750.88
378.7,-0.34468,4752.18
378.8,-0.34425,4753.53
378.9,-0.34382,4754.66
379,-0.3434,4756.08
379.1,-0.34297,4757.32
379.2,-0.34237,4758.36
379.3,-0.34203,4759.83
379.4,-0.3416,4760.92
379.5,-0.34109,4762.16
379.6,-0.34066,4763.46
379.7,-0.34024,4764.56
379.8,-0.33981,4765.97
379.9,-0.3393,4767.24
380,-0.33879,4768.35
380.1,-0.33836,4769.71
380.2,-0.33802,4770.97
380.3,-0.33742,4772.12
380.4,-0.33708,4773.60
380.5,-0.33657,4774.70
380.6,-0.33605,4776.03
380.7,-0.33571,4777.32
380.8,-0.3352,4778.47
380.9,-0.33477,4779.86
381,-0.33435,4781.07
381.1,-0.33383,4782.19
381.2,-0.33341,4783.61
381.3,-0.33298,4784.70
381.4,-0.33247,4786.02
381.5,-0.33204,4787.31
381.6,-0.33153,4788.33
381.7,-0.33119,4789.73
381.8,-0.33076,4790.93
381.9,-0.33025,4792.14
382,-0.32974,4793.58
382.1,-0.32931,4794.76
382.2,-0.32888,4796.07
382.3,-0.32837,4797.35
382.4,-0.32786,4798.45
382.5,-0.32752,4799.89
382.6,-0.327,4801.07
382.7,-0.32649,4802.31
382.8,-0.32615,4803.61
382.9,-0.32564,4804.75
383,-0.32521,4806.14
383.1,-0.32478,4807.28
383.2,-0.32427,4808.47
383.3,-0.32384,4809.84
383.4,-0.32342,4810.90
383.5,-0.32299,4812.23
383.6,-0.32248,4813.45
383.7,-0.32197,4814.58
383.8,-0.32154,4816.12
383.9,-0.32111,4817.16
384,-0.32069,4818.54
384.1,-0.32017,4819.85
384.2,-0.31966,4820.90
384.3,-0.31923,4822.42
384.4,-0.31881,4823.59
384.5,-0.31829,4824.73
384.6,-0.31787,4826.17
384.7,-0.31736,4827.22
384.8,-0.31693,4828.57
384.9,-0.3165,4829.91
385,-0.31599,4830.96
385.1,-0.31556,4832.31
385.2,-0.31514,4833.49
385.3,-0.31462,4834.75
385.4,-0.3142,4836.11
385.5,-0.31377,4837.22
385.6,-0.31326,4838.65
385.7,-0.31283,4839.85
385.8,-0.31232,4841.03
385.9,-0.31189,4842.46
386,-0.31146,4843.63
386.1,-0.31095,4844.85
386.2,-0.31053,4846.23
386.3,-0.3101,4847.34
386.4,-0.30959,4848.67
386.5,-0.30916,4849.91
386.6,-0.30865,4851.08
386.7,-0.30822,4852.30
386.8,-0.30779,4853.58
386.9,-0.30728,4854.77
387,-0.30685,4856.21
387.1,-0.30634,4857.26
387.2,-0.30591,4858.62
387.3,-0.30549,4859.93
387.4,-0.30489,4861.00
387.5,-0.30455,4862.43
387.6,-0.30404,4863.67
387.7,-0.30352,4864.87
387.8,-0.3031,4866.27
387.9,-0.30267,4867.38
388,-0.30216,4868.69
388.1,-0.30173,4870.08
388.2,-0.30122,4870.99
388.3,-0.30079,4872.55
388.4,-0.30036,4873.64
388.5,-0.29985,4874.79
388.6,-0.29943,4876.17
388.7,-0.29891,4877.26
388.8,-0.29849,4878.62
388.9,-0.29806,4879.82
389,-0.29746,4881.04
389.1,-0.29704,4882.46
389.2,-0.29661,4883.66
389.3,-0.2961,4884.93
389.4,-0.29567,4886.28
389.5,-0.29516,4887.35
389.6,-0.29473,4888.80
389.7,-0.2943,4889.99
389.8,-0.29371,4891.16
389.9,-0.29336,4892.59
390,-0.29285,4893.63
390.1,-0.29242,4895.03
390.2,-0.292,4896.27
390.3,-0.29149,4897.31
390.4,-0.29106,4898.66
390.5,-0.29063,4899.81
390.6,-0.29003,4901.04
390.7,-0.28969,4902.42
390.8,-0.28918,4903.57
390.9,-0.28867,4904.94
391,-0.28824,4906.21
391.1,-0.28773,4907.27
391.2,-0.2873,4908.89
391.3,-0.28688,4909.94
391.4,-0.28628,4911.18
391.5,-0.28594,4912.60
391.6,-0.28542,4913.67
391.7,-0.285,4915.04
391.8,-0.28448,4916.27
391.9,-0.28389,4917.42
392,-0.28355,4918.77
392.1,-0.28312,4919.74
392.2,-0.28261,4921.17
392.3,-0.28218,4922.49
392.4,-0.28167,4923.65
392.5,-0.28124,4924.99
392.6,-0.28081,4926.24
392.7,-0.28022,4927.40
392.8,-0.27979,4928.85
392.9,-0.27928,4929.96
393,-0.27885,4931.32
393.1,-0.27842,4932.58
393.2,-0.27782,4933.70
393.3,-0.27748,4935.10
393.4,-0.27697,4936.27
393.5,-0.27646,4937.48
393.6,-0.27603,4938.82
393.7,-0.2756,4939.85
393.8,-0.27518,4941.22
393.9,-0.27467,4942.44
394,-0.27415,4943.65
394.1,-0.27373,4945.05
394.2,-0.27321,4946.19
394.3,-0.27279,4947.50
394.4,-0.27228,4948.90
394.5,-0.27176,4949.94
394.6,-0.27134,4951.37
394.7,-0.27091,4952.68
394.8,-0.2704,4953.71
394.9,-0.26997,4955.14
395,-0.26946,4956.33
395.1,-0.26903,4957.66
395.2,-0.26852,4958.92
395.3,-0.26801,4959.96
395.4,-0.26758,4961.42
395.5,-0.26715,4962.51
395.6,-0.26664,4963.69
395.7,-0.26621,4965.08
395.8,-0.2657,4966.21
395.9,-0.26527,4967.56
396,-0.26476,4968.80
396.1,-0.26425,4969.92
396.2,-0.26382,4971.41
396.3,-0.26331,4972.62
396.4,-0.2628,4973.74
396.5,-0.26237,4975.27
396.6,-0.26194,4976.33
396.7,-0.26143,4977.62
396.8,-0.26101,4978.99
396.9,-0.26049,4980.05
397,-0.26007,4981.38
397.1,-0.25964,4982.62
397.2,-0.25904,4983.68
397.3,-0.25861,4985.06
397.4,-0.25819,4986.20
397.5,-0.25768,4987.49
397.6,-0.25725,4988.86
397.7,-0.25674,4989.98
397.8,-0.25631,4991.34
397.9,-0.2558,4992.59
398,-0.25528,4993.77
398.1,-0.25486,4995.19
398.2,-0.25435,4996.38
398.3,-0.25383,4997.59
398.4,-0.25341,4999.02
398.5,-0.25289,5000.08
398.6,-0.25247,5001.49
398.7,-0.25204,5002.64
398.8,-0.25144,5003.80
398.9,-0.25102,5005.22
399,-0.25059,5006.21
399.1,-0.25008,5007.60
399.2,-0.24956,5008.84
399.3,-0.24905,5010.03
399.4,-0.24862,5011.45
399.5,-0.2482,5012.61
399.6,-0.2476,5013.91
399.7,-0.24717,5015.24
399.8,-0.24666,5016.32
399.9,-0.24623,5017.74
400,-0.24572,5018.96
400.1,-0.24521,5020.11
400.2,-0.24478,5021.50
400.3,-0.24427,5022.62
400.4,-0.24376,5023.90
400.5,-0.24333,5025.26
400.6,-0.24282,5026.27
400.7,-0.24239,5027.64
400.8,-0.24197,5028.90
400.9,-0.24137,5030.00
401,-0.24094,5031.48
401.1,-0.24051,5032.62
401.2,-0.23992,5033.93
401.3,-0.23949,5035.23
401.4,-0.23898,5036.33
401.5,-0.23855,5037.81
401.6,-0.23804,5039.04
401.7,-0.23744,5040.16
401.8,-0.2371,5041.58
401.9,-0.23667,5042.68
402,-0.23607,5043.98
402.1,-0.23565,5045.32
402.2,-0.23514,5046.43
402.3,-0.23462,5047.72
402.4,-0.2342,5048.92
402.5,-0.23368,5050.05
402.6,-0.23326,5051.45
402.7,-0.23274,5052.70
402.8,-0.23223,5053.89
402.9,-0.23181,5055.27
403,-0.23121,5056.41
403.1,-0.23078,5057.79
403.2,-0.23035,5059.05
403.3,-0.22976,5060.27
403.4,-0.22933,5061.59
403.5,-0.2289,5062.75
403.6,-0.22839,5063.98
403.7,-0.22788,5065.36
403.8,-0.22737,5066.38
403.9,-0.22694,5067.83
404,-0.22651,5068.93
404.1,-0.22591,5069.98
404.2,-0.22549,5071.53
404.3,-0.22506,5072.64
404.4,-0.22446,5073.92
404.5,-0.22404,5075.24
404.6,-0.22352,5076.30
404.7,-0.2231,5077.86
404.8,-0.22258,5079.00
404.9,-0.22199,5080.13
405,-0.22165,5081.61
405.1,-0.22113,5082.82
405.2,-0.22062,5083.95
405.3,-0.22011,5085.38
405.4,-0.21968,5086.48
405.5,-0.21917,5087.81
405.6,-0.21874,5089.15
405.7,-0.21823,5090.11
405.8,-0.2178,5091.49
405.9,-0.21729,5092.74
406,-0.21669,5093.90
406.1,-0.21627,5095.37
406.2,-0.21584,5096.43
406.3,-0.21524,5097.79
406.4,-0.21481,5099.11
406.5,-0.21422,5100.27
406.6,-0.21388,5101.65
406.7,-0.21336,5102.91
406.8,-0.21277,5103.99
406.9,-0.21234,5105.42
407,-0.21191,5106.55
407.1,-0.2114,5107.83
407.2,-0.21097,5109.21
407.3,-0.21037,5110.15
407.4,-0.20995,5111.51
407.5,-0.20944,5112.83
407.6,-0.20892,5113.94
407.7,-0.2085,5115.38
407.8,-0.20798,5116.48
407.9,-0.20747,5117.77
408,-0.20696,5119.15
408.1,-0.20653,5120.28
408.2,-0.20602,5121.63
408.3,-0.20559,5122.97
408.4,-0.205,5124.07
408.5,-0.20457,5125.51
408.6,-0.20414,5126.63
408.7,-0.20354,5127.84
408.8,-0.20312,5129.18
408.9,-0.20261,5130.30
409,-0.20209,5131.57
409.1,-0.20167,5132.90
409.2,-0.20107,5133.92
409.3,-0.20064,5135.32
409.4,-0.20013,5136.59
409.5,-0.19953,5137.72
409.6,-0.1991,5139.18
409.7,-0.19868,5140.40
409.8,-0.19817,5141.61
409.9,-0.19765,5143.04
410,-0.19714,5144.04
410.1,-0.19663,5145.48
410.2,-0.1962,5146.73
410.3,-0.1956,5147.85
410.4,-0.19509,5149.26
410.5,-0.19475,5150.39
410.6,-0.19415,5151.48
410.7,-0.19373,5152.93
410.8,-0.1933,5153.95
410.9,-0.1927,5155.34
411,-0.19219,5156.66
411.1,-0.19176,5157.66
411.2,-0.19125,5159.06
411.3,-0.19074,5160.45
411.4,-0.19014,5161.55
411.5,-0.1898,5162.95
411.6,-0.18929,5164.20
411.7,-0.18869,5165.38
411.8,-0.18826,5166.78
411.9,-0.18775,5167.91
412,-0.18724,5169.18
412.1,-0.18681,5170.51
412.2,-0.18621,5171.53
412.3,-0.1857,5172.98
412.4,-0.18527,5174.04
412.5,-0.18468,5175.26
412.6,-0.18425,5176.72
412.7,-0.18374,5177.79
412.8,-0.18322,5179.14
412.9,-0.18271,5180.52
413,-0.1822,5181.61
413.1,-0.18177,5183.06
413.2,-0.18126,5184.24
413.3,-0.18066,5185.34
413.4,-0.18024,5186.80
413.5,-0.17972,5187.97
413.6,-0.17921,5189.16
413.7,-0.1787,5190.61
413.8,-0.17827,5191.60
413.9,-0.17776,5192.86
414,-0.17716,5194.21
414.1,-0.17674,5195.34
414.2,-0.17622,5196.71
414.3,-0.17571,5197.95
414.4,-0.1752,5199.15
414.5,-0.17469,5200.56
414.6,-0.17426,5201.69
414.7,-0.17366,5203.04
414.8,-0.17323,5204.31
414.9,-0.17264,5205.50
415,-0.17212,5206.78
415.1,-0.1717,5208.07
415.2,-0.1711,5209.21
415.3,-0.17067,5210.57
415.4,-0.17025,5211.75
415.5,-0.16965,5212.94
415.6,-0.16922,5214.27
415.7,-0.16871,5215.40
415.8,-0.1682,5216.66
415.9,-0.16769,5218.02
416,-0.16709,5219.14
416.1,-0.16666,5220.52
416.2,-0.16615,5221.78
416.3,-0.16555,5222.97
416.4,-0.16512,5224.39
416.5,-0.16461,5225.51
416.6,-0.1641,5226.83
416.7,-0.16367,5228.14
416.8,-0.16307,5229.24
416.9,-0.16265,5230.63
417,-0.16214,5231.82
417.1,-0.16154,5232.88
417.2,-0.16111,5234.31
417.3,-0.1606,5235.31
417.4,-0.16009,5236.69
417.5,-0.15957,5238.00
417.6,-0.15906,5239.03
417.7,-0.15864,5240.57
417.8,-0.15804,5241.80
417.9,-0.15753,5242.93
418,-0.1571,5244.37
418.1,-0.15659,5245.56
418.2,-0.15599,5246.80
418.3,-0.15556,5248.14
418.4,-0.15505,5249.29
418.5,-0.15445,5250.60
418.6,-0.15411,5251.84
418.7,-0.15343,5252.97
418.8,-0.15309,5254.32
418.9,-0.15257,5255.42
419,-0.15198,5256.74
419.1,-0.15155,5258.06
419.2,-0.15104,5259.22
419.3,-0.15044,5260.59
419.4,-0.14993,5261.94
419.5,-0.14941,5262.95
419.6,-0.1489,5264.39
419.7,-0.14847,5265.58
419.8,-0.14788,5266.74
419.9,-0.14745,5268.24
420,-0.14694,5269.39
420.1,-0.14643,5270.59
420.2,-0.14591,5271.91
420.3,-0.14532,5273.00
420.4,-0.14497,5274.32
420.5,-0.14438,5275.60
420.6,-0.14378,5276.71
420.7,-0.14335,5278.13
420.8,-0.14293,5279.27
420.9,-0.14233,5280.63
421,-0.14182,5281.96
421.1,-0.1413,5283.06
421.2,-0.14079,5284.43
421.3,-0.14028,5285.72
421.4,-0.13968,5286.83
421.5,-0.13925,5288.22
421.6,-0.13874,5289.48
421.7,-0.13814,5290.63
421.8,-0.13772,5291.97
421.9,-0.13729,5293.08
422,-0.13669,5294.30
422.1,-0.13618,5295.69
422.2,-0.13567,5296.71
422.3,-0.13516,5298.07
422.4,-0.13464,5299.45
422.5,-0.13405,5300.53
422.6,-0.13362,5301.95
422.7,-0.13311,5303.29
422.8,-0.13251,5304.29
422.9,-0.13208,5305.78
423,-0.13157,5306.97
423.1,-0.13097,5308.19
423.2,-0.13046,5309.50
423.3,-0.13003,5310.72
423.4,-0.12952,5311.94
423.5,-0.12901,5313.18
423.6,-0.12841,5314.22
423.7,-0.12798,5315.54
423.8,-0.12739,5316.83
423.9,-0.12687,5318.04
424,-0.12636,5319.39
424.1,-0.12585,5320.52
424.2,-0.12534,5321.84
424.3,-0.12482,5323.21
424.4,-0.12423,5324.43
424.5,-0.1238,5325.81
424.6,-0.12329,5327.02
424.7,-0.12269,5328.14
424.8,-0.12218,5329.52
424.9,-0.12175,5330.72
425,-0.12115,5331.91
425.1,-0.12064,5333.14
425.2,-0.12013,5334.37
425.3,-0.11962,5335.67
425.4,-0.1191,5336.99
425.5,-0.11851,5338.03
425.6,-0.11808,5339.52
425.7,-0.11757,5340.80
425.8,-0.11688,5341.85
425.9,-0.11646,5343.32
426,-0.11595,5344.46
426.1,-0.11535,5345.67
426.2,-0.11492,5347.15
426.3,-0.11441,5348.25
426.4,-0.11381,5349.55
426.5,-0.1133,5350.76
426.6,-0.11287,5351.80
426.7,-0.11227,5353.18
426.8,-0.11176,5354.53
426.9,-0.11116,5355.61
427,-0.11074,5357.02
427.1,-0.11022,5358.25
427.2,-0.10963,5359.40
427.3,-0.1092,5360.84
427.4,-0.10869,5362.03
427.5,-0.10809,5363.28
427.6,-0.10758,5364.69
427.7,-0.10707,5365.72
427.8,-0.10647,5367.02
427.9,-0.10604,5368.38
428,-0.10544,5369.49
428.1,-0.10493,5370.89
428.2,-0.10442,5372.03
428.3,-0.10391,5373.08
428.4,-0.10339,5374.49
428.5,-0.10288,5375.74
428.6,-0.10228,5376.88
428.7,-0.10186,5378.36
428.8,-0.10126,5379.49
428.9,-0.10075,5380.70
429,-0.10024,5382.17
429.1,-0.09972,5383.32
429.2,-0.09913,5384.59
429.3,-0.09861,5385.99
429.4,-0.09802,5386.90
429.5,-0.09759,5388.34
429.6,-0.09708,5389.63
429.7,-0.09648,5390.69
429.8,-0.09605,5392.11
429.9,-0.09554,5393.10
430,-0.09494,5394.33
430.1,-0.09452,5395.79
430.2,-0.094,5396.98
430.3,-0.09332,5398.17
430.4,-0.09289,5399.64
430.5,-0.09238,5400.75
430.6,-0.09178,5402.07
430.7,-0.09127,5403.43
430.8,-0.09067,5404.50
430.9,-0.09025,5405.95
431,-0.08973,5407.18
431.1,-0.08905,5408.23
431.2,-0.08862,5409.61
431.3,-0.0882,5410.69
431.4,-0.08751,5412.00
431.5,-0.087,5413.37
431.6,-0.08649,5414.38
431.7,-0.08598,5415.86
431.8,-0.08538,5417.17
431.9,-0.08478,5418.27
432,-0.08435,5419.67
432.1,-0.08384,5420.93
432.2,-0.08324,5422.02
432.3,-0.08273,5423.50
432.4,-0.08222,5424.57
432.5,-0.08171,5425.92
432.6,-0.0812,5427.19
432.7,-0.0806,5428.29
432.8,-0.08017,5429.62
432.9,-0.07957,5430.85
433,-0.07898,5431.98
433.1,-0.07855,5433.39
433.2,-0.07804,5434.64
433.3,-0.07735,5435.74
433.4,-0.07693,5437.25
433.5,-0.07641,5438.44
433.6,-0.07573,5439.68
433.7,-0.0753,5441.03
433.8,-0.07471,5442.15
433.9,-0.07419,5443.43
434,-0.07368,5444.81
434.1,-0.07308,5445.85
434.2,-0.07257,5447.27
434.3,-0.07206,5448.42
434.4,-0.07146,5449.54
434.5,-0.07104,5450.96
434.6,-0.07052,5452.10
434.7,-0.06993,5453.34
434.8,-0.06941,5454.68
434.9,-0.06882,5455.79
435,-0.06822,5457.19
435.1,-0.06771,5458.58
435.2,-0.06711,5459.67
435.3,-0.06668,5461.11
435.4,-0.06608,5462.27
435.5,-0.06549,5463.39
435.6,-0.06506,5464.84
435.7,-0.06455,5465.96
435.8,-0.06386,5467.05
435.9,-0.06344,5468.50
436,-0.06292,5469.47
436.1,-0.06233,5470.83
436.2,-0.06181,5472.11
436.3,-0.06122,5473.25
436.4,-0.0607,5474.72
436.5,-0.06019,5475.89
436.6,-0.05959,5477.14
436.7,-0.05908,5478.57
436.8,-0.05857,5479.71
436.9,-0.05797,5480.95
437,-0.05746,5482.36
437.1,-0.05686,5483.43
437.2,-0.05635,5484.77
437.3,-0.05584,5485.90
437.4,-0.05524,5487.01
437.5,-0.05473,5488.48
437.6,-0.05413,5489.75
437.7,-0.05353,5490.81
437.8,-0.05311,5492.30
437.9,-0.05251,5493.46
438,-0.052,5494.63
438.1,-0.0514,5496.07
438.2,-0.05089,5497.17
438.3,-0.05029,5498.61
438.4,-0.04978,5499.89
438.5,-0.04918,5500.87
438.6,-0.04875,5502.39
438.7,-0.04824,5503.49
438.8,-0.04756,5504.59
438.9,-0.04713,5506.07
439,-0.04662,5507.21
439.1,-0.04593,5508.45
439.2,-0.04542,5509.85
439.3,-0.04482,5510.91
439.4,-0.04431,5512.34
439.5,-0.0438,5513.60
439.6,-0.0432,5514.69
439.7,-0.04269,5516.15
439.8,-0.04218,5517.34
439.9,-0.04149,5518.50
440,-0.04107,5519.96
440.1,-0.04056,5521.10
440.2,-0.03987,5522.20
440.3,-0.03945,5523.62
440.4,-0.03885,5524.71
440.5,-0.03834,5526.00
440.6,-0.03782,5527.28
440.7,-0.03723,5528.33
440.8,-0.03671,5529.73
440.9,-0.03612,5531.07
441,-0.03543,5532.23
441.1,-0.03501,5533.72
441.2,-0.03449,5534.90
441.3,-0.03381,5536.05
441.4,-0.03338,5537.46
441.5,-0.03279,5538.57
441.6,-0.03227,5539.82
441.7,-0.03168,5541.12
441.8,-0.03116,5542.13
441.9,-0.03065,5543.43
442,-0.03005,5544.79
442.1,-0.02946,5545.82
442.2,-0.02894,5547.40
442.3,-0.02843,5548.47
442.4,-0.02775,5549.72
442.5,-0.02732,5551.14
442.6,-0.02672,5552.32
442.7,-0.02613,5553.58
442.8,-0.02561,5554.99
442.9,-0.02502,5556.05
443,-0.0245,5557.40
443.1,-0.02399,5558.64
443.2,-0.02331,5559.64
443.3,-0.02288,5561.10
443.4,-0.02237,5562.28
443.5,-0.02169,5563.47
443.6,-0.02117,5564.87
443.7,-0.02058,5566.00
443.8,-0.02006,5567.45
443.9,-0.01955,5568.68
444,-0.01895,5569.73
444.1,-0.01844,5571.26
444.2,-0.01784,5572.45
444.3,-0.01725,5573.58
444.4,-0.01682,5575.00
444.5,-0.01622,5576.22
444.6,-0.01554,5577.25
444.7,-0.01511,5578.69
444.8,-0.0146,5579.80
444.9,-0.014,5581.06
445,-0.0134,5582.44
445.1,-0.01281,5583.46
445.2,-0.01221,5584.99
445.3,-0.0117,5586.15
445.4,-0.0111,5587.31
445.5,-0.01059,5588.75
445.6,-0.01007,5590.02
445.7,-0.00939,5591.11
445.8,-0.00896,5592.57
445.9,-0.00837,5593.72
446,-0.00777,5594.89
446.1,-0.00726,5596.22
446.2,-0.00666,5597.26
446.3,-0.00615,5598.65
446.4,-0.00564,5599.88
446.5,-0.00495,5600.96
446.6,-0.00444,5602.44
446.7,-0.00393,5603.65
446.8,-0.00324,5604.83
446.9,-0.00273,5606.37
447,-0.00213,5607.37
447.1,-0.00154,5608.74
447.2,-0.00102,5610.00
447.3,-0.00043,5611.15
447.4,0.00009,5612.57
447.5,0.0006,5613.71
447.6,0.0012,5614.89
447.7,0.00171,5616.19
447.8,0.00231,5617.21
447.9,0.0029,5618.61
448,0.0035,5619.93
448.1,0.0041,5621.05
448.2,0.00453,5622.50
448.3,0.00512,5623.65
448.4,0.00581,5624.84
448.5,0.00632,5626.32
448.6,0.00683,5627.48
448.7,0.00743,5628.74
448.8,0.00803,5630.10
448.9,0.00862,5631.14
449,0.00905,5632.42
449.1,0.00973,5633.72
449.2,0.01033,5634.80
449.3,0.01084,5636.26
449.4,0.01144,5637.39
449.5,0.01204,5638.70
449.6,0.01264,5640.11
449.7,0.01315,5641.23
449.8,0.01375,5642.53
449.9,0.01426,5643.85
450,0.01494,5644.92
450.1,0.01545,5646.37
450.2,0.01597,5647.51
450.3,0.01665,5648.75
450.4,0.01716,5650.04
450.5,0.01776,5651.06
450.6,0.01836,5652.46
450.7,0.01887,5653.77
450.8,0.01955,5654.83
450.9,0.01998,5656.30
451,0.02058,5657.54
451.1,0.02126,5658.66
451.2,0.02177,5660.14
451.3,0.02237,5661.24
451.4,0.02288,5662.59
451.5,0.02348,5663.86
451.6,0.02416,5664.96
451.7,0.02459,5666.39
451.8,0.0251,5667.57
451.9,0.02578,5668.62
452,0.0263,5670.13
452.1,0.02689,5671.14
452.2,0.02749,5672.46
452.3,0.02809,5673.82
452.4,0.02869,5674.92
452.5,0.0292,5676.35
452.6,0.0298,5677.59
452.7,0.03048,5678.74
452.8,0.03091,5680.20
452.9,0.03151,5681.37
453,0.0321,5682.60
453.1,0.0327,5683.94
453.2,0.0333,5684.96
453.3,0.0339,5686.31
453.4,0.03441,5687.42
453.5,0.03501,5688.56
453.6,0.03552,5690.04
453.7,0.03612,5691.16
453.8,0.03671,5692.40
453.9,0.03731,5693.87
454,0.03791,5694.94
454.1,0.03851,5696.34
454.2,0.03902,5697.64
454.3,0.0397,5698.79
454.4,0.04021,5700.26
454.5,0.04073,5701.23
454.6,0.04132,5702.62
454.7,0.04184,5703.77
454.8,0.04252,5704.94
454.9,0.04303,5706.38
455,0.04363,5707.55
455.1,0.04431,5708.69
455.2,0.04482,5710.20
455.3,0.04542,5711.28
455.4,0.04602,5712.61
455.5,0.04662,5714.00
455.6,0.04721,5715.03
455.7,0.04773,5716.51
455.8,0.04824,5717.71
455.9,0.04892,5718.83
456,0.04943,5720.17
456.1,0.05003,5721.31
456.2,0.05063,5722.58
456.3,0.05123,5723.99
456.4,0.05183,5724.99
456.5,0.05234,5726.41
456.6,0.05294,5727.65
456.7,0.05362,5728.84
456.8,0.05413,5730.35
456.9,0.05473,5731.42
457,0.05541,5732.75
457.1,0.05592,5734.08
457.2,0.05661,5735.11
457.3,0.05712,5736.54
457.4,0.05763,5737.63
457.5,0.05831,5738.82
457.6,0.05883,5740.23
457.7,0.05942,5741.30
457.8,0.06002,5742.63
457.9,0.06062,5743.98
458,0.0613,5745.06
458.1,0.06181,5746.59
458.2,0.06241,5747.64
458.3,0.0631,5749.02
458.4,0.06361,5750.23
458.5,0.06429,5751.44
458.6,0.0648,5752.79
458.7,0.0654,5754.05
458.8,0.06608,5755.04
458.9,0.06651,5756.49
459,0.06711,5757.52
459.1,0.06779,5758.67
459.2,0.0683,5760.23
459.3,0.06899,5761.24
459.4,0.06958,5762.63
459.5,0.07018,5764.01
459.6,0.07078,5765.08
459.7,0.07138,5766.57
459.8,0.07189,5767.79
459.9,0.07266,5768.89
460,0.07308,5770.33
460.1,0.07377,5771.43
460.2,0.07428,5772.52
460.3,0.07496,5774.06
460.4,0.07556,5775.03
460.5,0.07607,5776.48
460.6,0.07676,5777.77
460.7,0.07744,5778.86
460.8,0.07795,5780.33
460.9,0.07855,5781.47
461,0.07923,5782.69
461.1,0.07974,5784.12
461.2,0.08034,5785.24
461.3,0.08094,5786.60
461.4,0.08154,5787.85
461.5,0.08222,5788.83
461.6,0.08273,5790.23
461.7,0.08333,5791.49
461.8,0.08401,5792.53
461.9,0.08453,5794.02
462,0.08512,5795.19
462.1,0.08572,5796.47
462.2,0.08632,5797.89
462.3,0.08692,5799.00
462.4,0.08751,5800.30
462.5,0.08811,5801.66
462.6,0.08879,5802.75
462.7,0.08939,5804.09
462.8,0.0899,5805.34
462.9,0.09059,5806.41
463,0.0911,5807.81
463.1,0.0917,5808.94
463.2,0.0923,5810.10
463.3,0.09289,5811.54
463.4,0.09349,5812.70
463.5,0.09409,5814.10
463.6,0.09469,5815.37
463.7,0.09545,5816.47
463.8,0.09597,5817.97
463.9,0.09648,5819.13
464,0.09716,5820.30
464.1,0.09776,5821.69
464.2,0.09836,5822.71
464.3,0.09895,5824.06
464.4,0.09947,5825.31
464.5,0.10015,5826.26
464.6,0.10066,5827.79
464.7,0.10135,5828.96
464.8,0.10203,5830.14
464.9,0.10254,5831.64
465,0.10314,5832.74
465.1,0.10382,5834.02
465.2,0.10433,5835.52
465.3,0.10493,5836.60
465.4,0.10561,5837.90
465.5,0.10613,5839.16
465.6,0.10681,5840.20
465.7,0.10732,5841.52
465.8,0.10801,5842.87
465.9,0.10869,5843.97
466,0.1092,5845.42
466.1,0.10971,5846.57
466.2,0.11048,5847.76
466.3,0.11108,5849.28
466.4,0.11168,5850.32
466.5,0.11227,5851.59
466.6,0.11287,5852.97
466.7,0.11347,5854.03
466.8,0.11407,5855.40
466.9,0.11466,5856.63
467,0.11535,5857.71
467.1,0.11586,5859.18
467.2,0.11646,5860.26
467.3,0.11714,5861.54
467.4,0.11774,5862.97
467.5,0.11842,5864.06
467.6,0.11893,5865.44
467.7,0.11962,5866.73
467.8,0.1203,5867.84
467.9,0.12081,5869.33
468,0.12141,5870.45
468.1,0.12209,5871.60
468.2,0.12269,5873.03
468.3,0.12329,5874.06
468.4,0.12389,5875.26
468.5,0.12448,5876.69
468.6,0.12508,5877.74
468.7,0.12576,5879.11
468.8,0.12636,5880.50
468.9,0.12704,5881.54
469,0.12756,5882.97
469.1,0.12824,5884.31
469.2,0.12892,5885.31
469.3,0.12944,5886.83
469.4,0.13012,5887.92
469.5,0.13072,5889.10
469.6,0.13131,5890.46
469.7,0.132,5891.49
469.8,0.13251,5892.87
469.9,0.13311,5894.06
470,0.13387,5895.14
470.1,0.13439,5896.73
470.2,0.13498,5897.92
470.3,0.13567,5899.14
470.4,0.13627,5900.57
470.5,0.13695,5901.65
470.6,0.13755,5903.05
470.7,0.13814,5904.31
470.8,0.13883,5905.29
470.9,0.13934,5906.63
471,0.13994,5907.87
471.1,0.14071,5909.10
471.2,0.1413,5910.55
471.3,0.1419,5911.58
471.4,0.1425,5913.06
471.5,0.14318,5914.22
471.6,0.14386,5915.40
471.7,0.14438,5916.84
471.8,0.14497,5918.06
471.9,0.14566,5919.23
472,0.14626,5920.56
472.1,0.14685,5921.71
472.2,0.14745,5922.87
472.3,0.14813,5924.23
472.4,0.14882,5925.34
472.5,0.14933,5926.73
472.6,0.14993,5927.98
472.7,0.15069,5929.12
472.8,0.15129,5930.72
472.9,0.15189,5931.76
473,0.15257,5933.03
473.1,0.15317,5934.38
473.2,0.15394,5935.43
473.3,0.15445,5936.84
473.4,0.15496,5938.12
473.5,0.15582,5939.06
473.6,0.15624,5940.52
473.7,0.15684,5941.67
473.8,0.15761,5942.85
473.9,0.15821,5944.33
474,0.15889,5945.46
474.1,0.15949,5946.79
474.2,0.16009,5948.16
474.3,0.16085,5949.20
474.4,0.16145,5950.72
474.5,0.16196,5951.84
474.6,0.16265,5952.93
474.7,0.16325,5954.40
474.8,0.16384,5955.45
474.9,0.16444,5956.66
475,0.16512,5958.01
475.1,0.16581,5959.04
475.2,0.16632,5960.50
475.3,0.167,5961.75
475.4,0.16777,5962.90
475.5,0.16828,5964.42
475.6,0.16888,5965.59
475.7,0.16965,5966.84
475.8,0.17025,5968.23
475.9,0.17084,5969.19
476,0.17153,5970.60
476.1,0.17204,5971.71
476.2,0.17281,5972.85
476.3,0.17341,5974.29
476.4,0.174,5975.58
476.5,0.17477,5976.62
476.6,0.17528,5978.13
476.7,0.17588,5979.38
476.8,0.17665,5980.54
476.9,0.17725,5981.97
477,0.17793,5983.07
477.1,0.17853,5984.33
477.2,0.17913,5985.71
477.3,0.17989,5986.61
477.4,0.18041,5988.08
477.5,0.18109,5989.31
477.6,0.18186,5990.43
477.7,0.18237,5991.96
477.8,0.18297,5993.03
477.9,0.18374,5994.31
478,0.18433,5995.76
478.1,0.18502,5996.78
478.2,0.18561,5998.24
478.3,0.18621,5999.46
478.4,0.18698,6000.54
478.5,0.18749,6001.97
478.6,0.18809,6003.09
478.7,0.18886,6004.23
478.8,0.18946,6005.66
478.9,0.19014,6006.66
479,0.19074,6008.01
479.1,0.19142,6009.51
479.2,0.19219,6010.51
479.3,0.19279,6012.02
479.4,0.19338,6013.25
479.5,0.19415,6014.31
479.6,0.19467,6015.79
479.7,0.19535,6016.83
479.8,0.19603,6018.16
479.9,0.19663,6019.40
480,0.19731,6020.42
480.1,0.19791,6021.86
480.2,0.19859,6023.07
480.3,0.19936,6024.20
480.4,0.19987,6025.72
480.5,0.20056,6026.88
480.6,0.20124,6028.05
480.7,0.20184,6029.61
480.8,0.20261,6030.62
480.9,0.2032,6031.98
481,0.2038,6033.27
481.1,0.20448,6034.20
481.2,0.20508,6035.66
481.3,0.20576,6036.86
481.4,0.20653,6038.06
481.5,0.20713,6039.54
481.6,0.20781,6040.56
481.7,0.20841,6042.06
481.8,0.20909,6043.17
481.9,0.20986,6044.35
482,0.21037,6045.87
482.1,0.21106,6046.94
482.2,0.21174,6048.24
482.3,0.21234,6049.39
482.4,0.21302,6050.54
482.5,0.21362,6051.99
482.6,0.2143,6053.15
482.7,0.21499,6054.34
482.8,0.21558,6055.76
482.9,0.21635,6056.79
483,0.21695,6058.35
483.1,0.21755,6059.54
483.2,0.2184,6060.74
483.3,0.21891,6062.14
483.4,0.2196,6063.22
483.5,0.22028,6064.44
483.6,0.22088,6065.85
483.7,0.22156,6066.82
483.8,0.22224,6068.10
483.9,0.22284,6069.37
484,0.22361,6070.54
484.1,0.22421,6072.05
484.2,0.2248,6073.30
484.3,0.22557,6074.44
484.4,0.22626,6075.98
484.5,0.22685,6076.98
484.6,0.22754,6078.33
484.7,0.22822,6079.58
484.8,0.2289,6080.61
484.9,0.22941,6082.00
485,0.2301,6083.04
485.1,0.23087,6084.31
485.2,0.23146,6085.78
485.3,0.23223,6086.87
485.4,0.23283,6088.39
485.5,0.23351,6089.56
485.6,0.23428,6090.63
485.7,0.23479,6092.19
485.8,0.23548,6093.24
485.9,0.23616,6094.54
486,0.23684,6095.88
486.1,0.23753,6096.64
486.2,0.23821,6098.32
486.3,0.23881,6099.51
486.4,0.23957,6100.67
486.5,0.24017,6102.22
486.6,0.24086,6103.24
486.7,0.24154,6104.62
486.8,0.24222,6105.95
486.9,0.24299,6106.97
487,0.24359,6108.42
487.1,0.24419,6109.59
487.2,0.24495,6110.56
487.3,0.24555,6112.17
487.4,0.24623,6113.22
487.5,0.24692,6114.43
487.6,0.24752,6115.87
487.7,0.24828,6116.84
487.8,0.24888,6118.42
487.9,0.24956,6119.66
488,0.25042,6120.83
488.1,0.25093,6122.23
488.2,0.25161,6123.28
488.3,0.2523,6124.61
488.4,0.25298,6125.93
488.5,0.25375,6126.90
488.6,0.25426,6128.33
488.7,0.25494,6129.45
488.8,0.2558,6130.66
488.9,0.25639,6132.18
489,0.25708,6133.34
489.1,0.25776,6134.58
489.2,0.25844,6136.05
489.3,0.25921,6137.04
489.4,0.2599,6138.58
489.5,0.26049,6139.61
489.6,0.26126,6140.70
489.7,0.26186,6142.11
489.8,0.26246,6143.16
489.9,0.26322,6144.30
490,0.26391,6145.84
490.1,0.26468,6146.96
490.2,0.26527,6148.35
490.3,0.26596,6149.69
490.4,0.26673,6150.71
490.5,0.26732,6152.23
490.6,0.26801,6153.44
490.7,0.26877,6154.56
490.8,0.26937,6155.99
490.9,0.26997,6156.95
491,0.27082,6158.20
491.1,0.27142,6159.67
491.2,0.27219,6160.70
491.3,0.27287,6162.27
491.4,0.27347,6163.53
491.5,0.27432,6164.55
491.6,0.27492,6166.05
491.7,0.27552,6167.21
491.8,0.27629,6168.45
491.9,0.27689,6169.74
492,0.27765,6170.60
492.1,0.27834,6172.18
492.2,0.27893,6173.43
492.3,0.27979,6174.44
492.4,0.28039,6176.05
492.5,0.28098,6177.16
492.6,0.28184,6178.38
492.7,0.28244,6179.81
492.8,0.2832,6180.97
492.9,0.28389,6182.35
493,0.28448,6183.56
493.1,0.28534,6184.57
493.2,0.28594,6185.99
493.3,0.28653,6187.13
493.4,0.28739,6188.22
493.5,0.28798,6189.83
493.6,0.28867,6190.84
493.7,0.28944,6192.19
493.8,0.29003,6193.55
493.9,0.29089,6194.64
494,0.29149,6196.13
494.1,0.29217,6197.27
494.2,0.29294,6198.44
494.3,0.29353,6199.81
494.4,0.29422,6200.85
494.5,0.29499,6201.96
494.6,0.29558,6203.42
494.7,0.29635,6204.50
494.8,0.29704,6205.96
494.9,0.2978,6207.24
495,0.29857,6208.38
495.1,0.29917,6209.85
495.2,0.29985,6211.07
495.3,0.30062,6212.16
495.4,0.30122,6213.64
495.5,0.30199,6214.71
495.6,0.30267,6215.88
495.7,0.30335,6217.21
495.8,0.30421,6218.29
495.9,0.30472,6219.79
496,0.30549,6221.05
496.1,0.30626,6222.25
496.2,0.30694,6223.69
496.3,0.30762,6224.73
496.4,0.30839,6226.13
496.5,0.30899,6227.37
496.6,0.30976,6228.24
496.7,0.31035,6229.80
496.8,0.31112,6231.02
496.9,0.31189,6232.16
497,0.31257,6233.56
497.1,0.31326,6234.74
497.2,0.31394,6236.03
497.3,0.31462,6237.45
497.4,0.31548,6238.47
497.5,0.31607,6240.00
497.6,0.31676,6241.09
497.7,0.31761,6242.13
497.8,0.31821,6243.67
497.9,0.31889,6244.66
498,0.31966,6245.86
498.1,0.32034,6247.27
498.2,0.32111,6248.43
498.3,0.3218,6249.76
498.4,0.32248,6251.14
498.5,0.32333,6252.28
498.6,0.32393,6253.75
498.7,0.32461,6254.86
498.8,0.32547,6256.06
498.9,0.32606,6257.41
499,0.32675,6258.46
499.1,0.32743,6259.65
499.2,0.3282,6261.00
499.3,0.32897,6262.12
499.4,0.32956,6263.60
499.5,0.33033,6264.75
499.6,0.33119,6265.93
499.7,0.33178,6267.49
499.8,0.33255,6268.60
499.9,0.33324,6269.92
500,0.33392,6271.16
500.1,0.33469,6272.16
500.2,0.33537,6273.59
500.3,0.33605,6274.83
500.4,0.33691,6275.97
500.5,0.33751,6277.48
500.6,0.33827,6278.54
500.7,0.33904,6279.85
500.8,0.33972,6281.34
500.9,0.34041,6282.40
501,0.34118,6283.73
501.1,0.34186,6284.92
501.2,0.34263,6285.80
501.3,0.34331,6287.45
501.4,0.34399,6288.64
501.5,0.34485,6289.72
501.6,0.34545,6291.23
501.7,0.34613,6292.35
501.8,0.34698,6293.61
501.9,0.34767,6295.09
502,0.34843,6296.10
502.1,0.34912,6297.50
502.2,0.3498,6298.73
502.3,0.35065,6299.72
502.4,0.35125,6301.19
502.5,0.35185,6302.29
502.6,0.35279,6303.38
502.7,0.35339,6305.00
502.8,0.35415,6306.13
502.9,0.35501,6307.36
503,0.35561,6308.81
503.1,0.35646,6309.93
503.2,0.35714,6311.27
503.3,0.35783,6312.49
503.4,0.35859,6313.47
503.5,0.35919,6314.96
503.6,0.35987,6316.07
503.7,0.36073,6317.14
503.8,0.36141,6318.65
503.9,0.36218,6319.76
504,0.36295,6321.20
504.1,0.36363,6322.45
504.2,0.36448,6323.59
504.3,0.36517,6325.10
504.4,0.36585,6326.22
504.5,0.3667,6327.33
504.6,0.3673,6328.71
504.7,0.36807,6329.74
504.8,0.36884,6331.04
504.9,0.36952,6332.57
505,0.37029,6333.60
505.1,0.37106,6334.97
505.2,0.37174,6336.29
505.3,0.3726,6337.38
505.4,0.37319,6338.86
505.5,0.37388,6339.98
505.6,0.37473,6341.02
505.7,0.37541,6342.41
505.8,0.37618,6343.54
505.9,0.37695,6344.88
506,0.37763,6346.30
506.1,0.37849,6347.33
506.2,0.37917,6348.84
506.3,0.37985,6350.05
506.4,0.38079,6351.19
506.5,0.38139,6352.62
506.6,0.38207,6353.81
506.7,0.38301,6354.83
506.8,0.38361,6356.30
506.9,0.38429,6357.34
507,0.38515,6358.57
507.1,0.38583,6360.03
507.2,0.3866,6361.13
507.3,0.38737,6362.59
507.4,0.38814,6363.91
507.5,0.38899,6364.97
507.6,0.38959,6366.47
507.7,0.39035,6367.60
507.8,0.39121,6368.66
507.9,0.39181,6370.04
508,0.39257,6371.01
508.1,0.39343,6372.26
508.2,0.39403,6373.74
508.3,0.39479,6374.99
508.4,0.39565,6376.28
508.5,0.39633,6377.60
508.6,0.39719,6378.73
508.7,0.39787,6380.16
508.8,0.39855,6381.37
508.9,0.39949,6382.45
509,0.40009,6383.64
509.1,0.40086,6384.99
509.2,0.40171,6386.08
509.3,0.40231,6387.63
509.4,0.40308,6388.79
509.5,0.40393,6390.04
509.6,0.40461,6391.48
509.7,0.40538,6392.56
509.8,0.40615,6393.86
509.9,0.40692,6395.13
510,0.40769,6396.02
510.1,0.40837,6397.56
510.2,0.40914,6398.76
510.3,0.40999,6399.89
510.4,0.41068,6401.42
510.5,0.41144,6402.49
510.6,0.41221,6403.93
510.7,0.4129,6405.28
510.8,0.41383,6406.30
510.9,0.41443,6407.69
511,0.41511,6408.89
511.1,0.41605,6409.91
511.2,0.41665,6411.34
511.3,0.41742,6412.39
511.4,0.41827,6413.65
511.5,0.41896,6415.14
511.6,0.41981,6416.33
511.7,0.42058,6417.65
511.8,0.42135,6419.07
511.9,0.4222,6420.01
512,0.42288,6421.47
512.1,0.42357,6422.57
512.2,0.42442,6423.59
512.3,0.4251,6425.05
512.4,0.42587,6426.20
512.5,0.42673,6427.39
512.6,0.42741,6428.95
512.7,0.42826,6430.03
512.8,0.42903,6431.40
512.9,0.42971,6432.79
513,0.43065,6433.77
513.1,0.43134,6435.18
513.2,0.43202,6436.41
513.3,0.43287,6437.27
513.4,0.43356,6438.94
513.5,0.43433,6440.00
513.6,0.43518,6441.23
513.7,0.43595,6442.74
513.8,0.43672,6443.84
513.9,0.43748,6445.28
514,0.43825,6446.56
514.1,0.43911,6447.54
514.2,0.43979,6448.97
514.3,0.44047,6450.06
514.4,0.44141,6451.08
514.5,0.44218,6452.77
514.6,0.44286,6453.87
514.7,0.44372,6455.11
514.8,0.44449,6456.57
514.9,0.44534,6457.60
515,0.44611,6459.10
515.1,0.44679,6460.30
515.2,0.44773,6461.25
515.3,0.44841,6462.79
515.4,0.4491,6463.81
515.5,0.45004,6464.88
515.6,0.45072,6466.48
515.7,0.45149,6467.61
515.8,0.45234,6469.06
515.9,0.45311,6470.24
516,0.45396,6471.36
516.1,0.45465,6472.79
516.2,0.45541,6474.02
516.3,0.45635,6475.04
516.4,0.45695,6476.37
516.5,0.45772,6477.58
516.6,0.45857,6478.69
516.7,0.45934,6480.18
516.8,0.4602,6481.30
516.9,0.46096,6482.72
517,0.46173,6484.05
517.1,0.46259,6485.12
517.2,0.46327,6486.59
517.3,0.46404,6487.77
517.4,0.46489,6488.77
517.5,0.46557,6490.22
517.6,0.46643,6491.35
517.7,0.46728,6492.56
517.8,0.46805,6494.06
517.9,0.46882,6495.13
518,0.46959,6496.64
518.1,0.47036,6497.85
518.2,0.47129,6498.90
518.3,0.47198,6500.36
518.4,0.47275,6501.41
518.5,0.4736,6502.55
518.6,0.47437,6504.02
518.7,0.47522,6505.11
518.8,0.47599,6506.50
518.9,0.47676,6507.86
519,0.4777,6508.98
519.1,0.47838,6510.47
519.2,0.47915,6511.57
519.3,0.48,6512.73
519.4,0.48069,6514.07
519.5,0.48154,6515.00
519.6,0.48231,6516.42
519.7,0.48308,6517.77
519.8,0.48402,6518.85
519.9,0.4847,6520.47
520,0.48555,6521.43
520.1,0.48641,6522.87
520.2,0.48718,6524.26
520.3,0.48811,6525.32
520.4,0.4888,6526.59
520.5,0.48948,6527.73
520.6,0.49042,6528.67
520.7,0.4911,6530.23
520.8,0.49204,6531.39
520.9,0.49281,6532.75
521,0.49358,6534.19
521.1,0.4946,6535.12
521.2,0.4952,6536.65
521.3,0.49597,6537.87
521.4,0.49691,6539.03
521.5,0.49759,6540.29
521.6,0.49853,6541.37
521.7,0.4993,6542.80
521.8,0.50015,6544.04
521.9,0.50109,6545.17
522,0.50178,6546.81
522.1,0.50254,6547.80
522.2,0.5034,6549.08
522.3,0.50417,6550.46
522.4,0.5051,6551.32
522.5,0.50579,6552.82
522.6,0.50656,6554.05
522.7,0.50758,6555.07
522.8,0.50826,6556.67
522.9,0.50912,6557.76
523,0.50997,6559.13
523.1,0.51074,6560.54
523.2,0.51168,6561.50
523.3,0.51236,6562.99
523.4,0.51313,6564.13
523.5,0.51416,6565.16
523.6,0.51475,6566.53
523.7,0.51561,6567.72
523.8,0.51655,6568.99
523.9,0.51731,6570.45
524,0.51825,6571.54
524.1,0.51902,6573.02
524.2,0.51979,6574.27
524.3,0.52073,6575.27
524.4,0.52141,6576.69
524.5,0.52218,6577.76
524.6,0.52312,6578.83
524.7,0.52389,6580.36
524.8,0.52474,6581.50
524.9,0.5256,6582.76
525,0.52636,6584.16
525.1,0.5273,6585.22
525.2,0.52807,6586.74
525.3,0.52884,6587.94
525.4,0.52978,6588.96
525.5,0.53046,6590.28
525.6,0.53132,6591.54
525.7,0.53226,6592.71
525.8,0.53294,6594.27
525.9,0.53388,6595.37
526,0.53465,6596.68
526.1,0.5355,6598.14
526.2,0.53644,6599.14
526.3,0.53721,6600.50
526.4,0.53789,6601.59
526.5,0.53892,6602.65
526.6,0.5396,6604.18
526.7,0.54045,6605.36
526.8,0.54139,6606.67
526.9,0.54216,6608.11
527,0.5431,6609.12
527.1,0.54387,6610.62
527.2,0.54464,6611.81
527.3,0.54557,6612.83
527.4,0.54634,6614.26
527.5,0.54703,6615.34
527.6,0.54805,6616.50
527.7,0.54882,6618.02
527.8,0.54976,6619.14
527.9,0.55053,6620.51
528,0.55138,6621.93
528.1,0.55232,6622.87
528.2,0.55309,6624.34
528.3,0.55386,6625.50
528.4,0.5548,6626.43
528.5,0.55548,6627.91
528.6,0.55642,6628.97
528.7,0.55727,6630.33
528.8,0.55813,6631.82
528.9,0.55906,6632.87
529,0.55983,6634.37
529.1,0.5606,6635.59
529.2,0.56163,6636.59
529.3,0.56222,6637.95
529.4,0.56316,6639.10
529.5,0.5641,6640.38
529.6,0.56487,6641.77
529.7,0.56581,6642.92
529.8,0.56658,6644.34
529.9,0.56743,6645.62
530,0.56846,6646.74
530.1,0.56914,6648.19
530.2,0.56999,6649.25
530.3,0.57093,6650.15
530.4,0.5717,6651.75
530.5,0.57255,6652.86
530.6,0.57349,6654.22
530.7,0.57426,6655.67
530.8,0.5752,6656.69
530.9,0.57606,6658.14
531,0.57691,6659.36
531.1,0.57785,6660.41
531.2,0.57853,6661.89
531.3,0.57939,6662.82
531.4,0.58032,6664.05
531.5,0.58118,6665.56
531.6,0.58212,6666.67
531.7,0.58297,6668.14
531.8,0.58382,6669.43
531.9,0.58476,6670.46
532,0.58553,6671.89
532.1,0.5863,6673.05
532.2,0.58724,6674.04
532.3,0.58801,6675.45
532.4,0.58886,6676.64
532.5,0.58989,6677.82
532.6,0.59066,6679.39
532.7,0.59159,6680.43
532.8,0.59245,6681.88
532.9,0.5933,6683.22
533,0.59416,6684.21
533.1,0.59492,6685.36
533.2,0.59578,6686.79
533.3,0.5968,6687.76
533.4,0.59749,6689.37
533.5,0.59834,6690.63
533.6,0.59945,6691.70
533.7,0.60013,6693.31
533.8,0.60107,6694.35
533.9,0.60193,6695.63
534,0.60269,6696.94
534.1,0.60372,6697.81
534.2,0.60449,6699.40
534.3,0.60534,6700.64
534.4,0.60636,6701.66
534.5,0.60705,6703.32
534.6,0.60799,6704.35
534.7,0.60893,6705.66
534.8,0.60969,6707.02
534.9,0.61072,6708.01
535,0.6114,6709.46
535.1,0.61226,6710.53
535.2,0.61328,6711.61
535.3,0.61413,6713.15
535.4,0.61499,6714.36
535.5,0.61601,6715.52
535.6,0.6167,6717.10
535.7,0.61764,6718.11
535.8,0.61857,6719.40
535.9,0.61934,6720.64
536,0.62028,6721.48
536.1,0.62105,6723.01
536.2,0.62199,6724.31
536.3,0.62301,6725.41
536.4,0.62378,6726.95
536.5,0.62464,6728.20
536.6,0.62566,6729.31
536.7,0.62634,6730.78
536.8,0.6272,6731.68
536.9,0.62822,6732.99
537,0.62908,6734.45
537.1,0.63002,6735.47
537.2,0.63087,6736.91
537.3,0.63172,6738.22
537.4,0.63275,6739.25
537.5,0.6336,6740.88
537.6,0.63437,6741.96
537.7,0.63531,6742.97
537.8,0.63616,6744.41
537.9,0.63702,6745.55
538,0.63804,6746.74
538.1,0.63881,6748.30
538.2,0.63975,6749.37
538.3,0.64069,6750.79
538.4,0.64154,6752.14
538.5,0.64248,6753.12
538.6,0.64333,6754.53
538.7,0.64419,6755.72
538.8,0.64521,6756.60
538.9,0.6459,6758.13
539,0.64683,6759.30
539.1,0.64786,6760.67
539.2,0.64871,6762.21
539.3,0.64965,6763.18
539.4,0.65042,6764.52
539.5,0.65136,6765.79
539.6,0.6523,6766.70
539.7,0.65307,6768.09
539.8,0.65401,6769.40
539.9,0.65503,6770.44
540,0.6558,6772.04
540.1,0.65674,6773.21
540.2,0.65776,6774.39
540.3,0.65853,6775.92
540.4,0.65939,6776.90
540.5,0.66041,6777.89
540.6,0.66118,6779.49
540.7,0.66212,6780.55
540.8,0.66306,6781.96
540.9,0.66391,6783.41
541,0.66494,6784.40
541.1,0.66579,6785.95
541.2,0.66664,6787.09
541.3,0.66767,6788.07
541.4,0.66835,6789.47
541.5,0.66929,6790.62
541.6,0.67031,6791.81
541.7,0.67117,6793.37
541.8,0.67211,6794.41
541.9,0.67305,6795.94
542,0.6739,6797.23
542.1,0.67492,6798.18
542.2,0.67569,6799.61
542.3,0.67655,6800.79
542.4,0.67757,6801.76
542.5,0.67834,6803.24
542.6,0.67936,6804.48
542.7,0.6803,6805.89
542.8,0.68124,6807.26
542.9,0.68227,6808.23
543,0.68304,6809.69
543.1,0.68389,6810.82
543.2,0.68491,6811.81
543.3,0.68568,6813.16
543.4,0.68662,6814.27
543.5,0.68773,6815.63
543.6,0.6885,6817.12
543.7,0.68952,6818.25
543.8,0.69046,6819.56
543.9,0.69132,6820.98
544,0.69226,6821.82
544.1,0.69311,6823.22
544.2,0.69405,6824.55
544.3,0.69507,6825.64
544.4,0.69593,6827.15
544.5,0.69687,6828.37
544.6,0.69798,6829.48
544.7,0.69875,6831.01
544.8,0.6996,6832.05
544.9,0.70062,6833.18
545,0.70148,6834.51
545.1,0.7025,6835.52
545.2,0.70344,6837.11
545.3,0.7043,6838.37
545.4,0.70541,6839.47
545.5,0.70617,6841.04
545.6,0.70703,6842.18
545.7,0.70814,6843.31
545.8,0.70891,6844.69
545.9,0.70984,6845.73
546,0.71078,6846.85
546.1,0.71172,6848.42
546.2,0.71275,6849.46
546.3,0.71369,6850.91
546.4,0.71454,6852.33
546.5,0.71565,6853.26
546.6,0.71642,6854.68
546.7,0.71736,6855.89
546.8,0.71838,6856.69
546.9,0.71924,6858.25
547,0.72018,6859.50
547.1,0.72129,6860.71
547.2,0.72214,6862.30
547.3,0.72308,6863.33
547.4,0.72402,6864.65
547.5,0.72487,6865.85
547.6,0.7259,6866.94
547.7,0.72675,6868.39
547.8,0.72769,6869.74
547.9,0.7288,6870.73
548,0.72965,6872.35
548.1,0.73059,6873.51
548.2,0.73162,6874.67
548.3,0.73247,6876.03
548.4,0.73349,6876.93
548.5,0.73443,6878.42
548.6,0.73529,6879.65
548.7,0.73648,6880.73
548.8,0.73725,6882.24
548.9,0.73819,6883.58
549,0.7393,6884.62
549.1,0.74015,6886.14
549.2,0.74109,6887.09
549.3,0.74203,6888.23
549.4,0.74297,6889.62
549.5,0.744,6890.77
549.6,0.74494,6892.22
549.7,0.74588,6893.46
549.8,0.74698,6894.59
549.9,0.74784,6896.10
550,0.74878,6897.09
550.1,0.74972,6898.30
550.2,0.75066,6899.50
550.3,0.75168,6900.52
550.4,0.75262,6902.12
550.5,0.75356,6903.44
550.6,0.75467,6904.54
550.7,0.75561,6906.13
550.8,0.75646,6907.18
550.9,0.7574,6908.27
551,0.75843,6909.75
551.1,0.75945,6910.70
551.2,0.76039,6912.25
551.3,0.76133,6913.57
551.4,0.76244,6914.63
551.5,0.76329,6916.19
551.6,0.76423,6917.27
551.7,0.76526,6918.23
551.8,0.7662,6919.75
551.9,0.76722,6920.77
552,0.76816,6922.15
552.1,0.7691,6923.58
552.2,0.77021,6924.67
552.3,0.77115,6926.22
552.4,0.772,6927.37
552.5,0.7732,6928.35
552.6,0.77396,6929.88
552.7,0.7749,6930.78
552.8,0.77601,6931.97
552.9,0.77695,6933.55
553,0.77806,6934.68
553.1,0.779,6936.10
553.2,0.77986,6937.48
553.3,0.78105,6938.45
553.4,0.78191,6939.85
553.5,0.78276,6940.91
553.6,0.78387,6941.86
553.7,0.78472,6943.46
553.8,0.78583,6944.67
553.9,0.78686,6945.95
554,0.7878,6947.43
554.1,0.78882,6948.37
554.2,0.78976,6949.84
554.3,0.7907,6950.91
554.4,0.79189,6952.02
554.5,0.79275,6953.54
554.6,0.79369,6954.70
554.7,0.7948,6956.07
554.8,0.79574,6957.53
554.9,0.79676,6958.50
555,0.7977,6959.67
555.1,0.79864,6961.13
555.2,0.79975,6962.09
555.3,0.80069,6963.58
555.4,0.80163,6964.86
555.5,0.80282,6965.96
555.6,0.80368,6967.61
555.7,0.80462,6968.60
555.8,0.80581,6969.73
555.9,0.80667,6971.21
556,0.8076,6972.07
556.1,0.80863,6973.34
556.2,0.80965,6975.06
556.3,0.81076,6975.97
556.4,0.8117,6977.48
556.5,0.81273,6978.77
556.6,0.81384,6979.79
556.7,0.81469,6981.15
556.8,0.81563,6982.16
556.9,0.81683,6983.12
557,0.81768,6984.78
557.1,0.81879,6985.91
557.2,0.8199,6987.27
557.3,0.82075,6988.79
557.4,0.82186,6989.75
557.5,0.8228,6990.84
557.6,0.82383,6992.33
557.7,0.82494,6993.41
557.8,0.82588,6994.98
557.9,0.82681,6996.16
558,0.8281,6997.25
558.1,0.82895,6998.91
558.2,0.82989,6999.81
558.3,0.831,7000.85
558.4,0.83194,7002.46
558.5,0.83296,7003.52
558.6,0.83407,7004.79
558.7,0.83501,7006.30
558.8,0.83621,7007.31
558.9,0.83715,7008.78
559,0.83808,7009.96
559.1,0.83928,7010.93
559.2,0.84013,7012.40
559.3,0.84107,7013.44
559.4,0.84227,7014.75
559.5,0.84321,7016.36
559.6,0.84432,7017.37
559.7,0.84534,7018.73
559.8,0.84628,7020.03
559.9,0.84739,7020.90
560,0.84824,7022.21
560.1,0.84935,7023.42
560.2,0.85055,7024.63
560.3,0.85149,7026.28
560.4,0.85243,7027.43
560.5,0.85362,7028.70
560.6,0.85448,7030.12
560.7,0.85559,7030.69
560.8,0.85661,7032.35
560.9,0.85764,7033.71
561,0.85883,7034.74
561.1,0.85969,7036.32
561.2,0.86071,7037.54
561.3,0.86191,7038.64
561.4,0.86276,7039.94
561.5,0.86387,7041.10
561.6,0.86489,7042.41
561.7,0.86592,7043.79
561.8,0.8672,7044.85
561.9,0.86814,7046.36
562,0.86908,7047.67
562.1,0.87036,7048.57
562.2,0.87121,7050.15
562.3,0.87215,7051.11
562.4,0.87343,7052.09
562.5,0.87437,7053.73
562.6,0.87548,7054.86
562.7,0.87651,7056.27
562.8,0.87753,7057.71
562.9,0.87873,7058.55
563,0.87966,7060.03
563.1,0.88052,7060.94
563.2,0.8818,7062.06
563.3,0.88274,7063.75
563.4,0.88385,7064.91
563.5,0.88496,7066.26
563.6,0.88598,7067.70
563.7,0.88718,7068.65
563.8,0.88803,7069.82
563.9,0.88906,7071.22
564,0.89034,7072.31
564.1,0.89119,7073.90
564.2,0.89239,7074.99
564.3,0.89341,7076.31
564.4,0.89435,7077.70
564.5,0.89555,7078.40
564.6,0.89648,7079.98
564.7,0.89751,7081.23
564.8,0.89879,7082.34
564.9,0.89973,7083.95
565,0.90084,7085.01
565.1,0.90195,7086.34
565.2,0.90289,7087.72
565.3,0.90408,7088.58
565.4,0.90502,7089.96
565.5,0.90605,7091.17
565.6,0.90733,7092.33
565.7,0.90827,7094.00
565.8,0.90938,7095.07
565.9,0.91049,7096.34
566,0.91143,7097.63
566.1,0.91254,7098.52
566.2,0.91347,7099.80
566.3,0.91467,7101.11
566.4,0.91587,7102.23
566.5,0.9168,7104.01
566.6,0.91791,7104.98
566.7,0.91902,7106.36
566.8,0.92005,7107.72
566.9,0.92124,7108.53
567,0.92218,7110.07
567.1,0.92329,7111.37
567.2,0.92457,7112.53
567.3,0.92551,7114.11
567.4,0.92662,7115.08
567.5,0.92765,7116.21
567.6,0.92876,7117.57
567.7,0.93004,7118.56
567.8,0.93089,7120.14
567.9,0.932,7121.31
568,0.93328,7122.56
568.1,0.93422,7124.16
568.2,0.93533,7125.05
568.3,0.93644,7126.29
568.4,0.93747,7127.55
568.5,0.93875,7128.48
568.6,0.93969,7130.16
568.7,0.9408,7131.41
568.8,0.94208,7132.65
568.9,0.94302,7134.06
569,0.94413,7135.03
569.1,0.94524,7136.25
569.2,0.94626,7137.30
569.3,0.94754,7138.45
569.4,0.94848,7140.20
569.5,0.94959,7141.40
569.6,0.95087,7142.56
569.7,0.95181,7144.07
569.8,0.95292,7144.96
569.9,0.95403,7146.15
570,0.95514,7147.60
570.1,0.95642,7148.66
570.2,0.95736,7150.34
570.3,0.95847,7151.47
570.4,0.95975,7152.60
570.5,0.9606,7153.77
570.6,0.9618,7154.97
570.7,0.96299,7156.30
570.8,0.96402,7157.74
570.9,0.9653,7158.76
571,0.96624,7160.32
571.1,0.96726,7161.54
571.2,0.96854,7162.53
571.3,0.96948,7163.94
571.4,0.97059,7164.93
571.5,0.97187,7166.21
571.6,0.9729,7167.85
571.7,0.97409,7168.94
571.8,0.9752,7170.22
571.9,0.97623,7171.49
572,0.97742,7172.44
572.1,0.97836,7173.66
572.2,0.97956,7174.95
572.3,0.98075,7176.22
572.4,0.98186,7177.85
572.5,0.98306,7178.81
572.6,0.98408,7180.38
572.7,0.98511,7181.50
572.8,0.98639,7182.32
572.9,0.98741,7184.01
573,0.98861,7185.04
573.1,0.9898,7186.53
573.2,0.99083,7187.83
573.3,0.99219,7188.83
573.4,0.99305,7190.13
573.5,0.99416,7191.41
573.6,0.99552,7192.55
573.7,0.99646,7194.07
573.8,0.99774,7195.16
573.9,0.99885,7196.58
574,0.99996,7197.90
574.1,1.00124,7198.78
574.2,1.00218,7200.25
574.3,1.00329,7201.22
574.4,1.00457,7202.51
574.5,1.00568,7204.29
574.6,1.00688,7205.14
574.7,1.00799,7206.60
574.8,1.0091,7207.79
574.9,1.01038,7208.66
575,1.01132,7210.07
575.1,1.01252,7211.29
575.2,1.0138,7212.67
575.3,1.01482,7214.17
575.4,1.0161,7215.22
575.5,1.01713,7216.61
575.6,1.01815,7217.59
575.7,1.0196,7218.71
575.8,1.02063,7220.33
575.9,1.02182,7221.45
576,1.02302,7222.72
576.1,1.02404,7224.23
576.2,1.02524,7225.09
576.3,1.02635,7226.38
576.4,1.02746,7227.80
576.5,1.02882,7228.79
576.6,1.02985,7230.43
576.7,1.03096,7231.67
576.8,1.03232,7232.73
576.9,1.03326,7234.23
577,1.03446,7235.16
577.1,1.03565,7236.28
577.2,1.03676,7237.87
577.3,1.03813,7238.97
577.4,1.03915,7240.45
577.5,1.04026,7241.71
577.6,1.04163,7242.65
577.7,1.04257,7244.15
577.8,1.04368,7244.86
577.9,1.04487,7246.22
578,1.04607,7247.85
578.1,1.04744,7248.91
578.2,1.04846,7250.48
578.3,1.04957,7251.66
578.4,1.05085,7252.47
578.5,1.05196,7254.15
578.6,1.05316,7255.16
578.7,1.05444,7256.47
578.8,1.05555,7258.13
578.9,1.05674,7259.06
579,1.05785,7260.19
579.1,1.05896,7261.51
579.2,1.06041,7262.61
579.3,1.06135,7264.13
579.4,1.06255,7265.39
579.5,1.06391,7266.56
579.6,1.06494,7268.03
579.7,1.06622,7268.92
579.8,1.06733,7270.28
579.9,1.06844,7271.47
580,1.06989,7272.62
580.1,1.07091,7274.32
580.2,1.07211,7275.48
580.3,1.07348,7276.66
580.4,1.0745,7278.02
580.5,1.0757,7278.62
580.6,1.07681,7280.16
580.7,1.07809,7281.52
580.8,1.07945,7282.69
580.9,1.08048,7284.29
581,1.08167,7285.42
581.1,1.08295,7286.36
581.2,1.08406,7287.88
581.3,1.08534,7288.93
581.4,1.08654,7290.45
581.5,1.08765,7291.83
581.6,1.0891,7292.78
581.7,1.09012,7294.31
581.8,1.09123,7295.20
581.9,1.0926,7296.39
582,1.09371,7297.98
582.1,1.09499,7299.17
582.2,1.09619,7300.43
582.3,1.0973,7301.88
582.4,1.09866,7302.86
582.5,1.09969,7304.07
582.6,1.10088,7305.26
582.7,1.10233,7306.41
582.8,1.10336,7308.10
582.9,1.10455,7309.31
583,1.10592,7310.40
583.1,1.10694,7311.82
583.2,1.10823,7312.42
583.3,1.10934,7313.86
583.4,1.11062,7315.44
583.5,1.11198,7316.55
583.6,1.11309,7318.13
583.7,1.11429,7319.24
583.8,1.11557,7320.26
583.9,1.11668,7321.61
584,1.11804,7322.75
584.1,1.11924,7324.22
584.2,1.12043,7325.64
584.3,1.1218,7326.57
584.4,1.12291,7328.09
584.5,1.12402,7328.99
584.6,1.12547,7330.19
584.7,1.12658,7331.78
584.8,1.12786,7332.98
584.9,1.12923,7334.19
585,1.13025,7335.66
585.1,1.13162,7336.57
585.2,1.13273,7337.89
585.3,1.13392,7339.15
585.4,1.13538,7340.23
585.5,1.13649,7341.88
585.6,1.13768,7343.08
585.7,1.13913,7344.17
585.8,1.14016,7345.40
585.9,1.14144,7346.32
586,1.14272,7347.82
586.1,1.14391,7349.32
586.2,1.14537,7350.35
586.3,1.14648,7351.98
586.4,1.14759,7353.00
586.5,1.14904,7353.96
586.6,1.15015,7355.47
586.7,1.15151,7356.57
586.8,1.15271,7358.10
586.9,1.1539,7359.49
587,1.15535,7360.37
587.1,1.15646,7361.72
587.2,1.15766,7362.93
587.3,1.1592,7363.98
587.4,1.16031,7365.71
587.5,1.16159,7366.85
587.6,1.16287,7368.14
587.7,1.16398,7369.38
587.8,1.16543,7370.05
587.9,1.16654,7371.80
588,1.16782,7373.11
588.1,1.16927,7374.24
588.2,1.17038,7375.78
588.3,1.17175,7376.70
588.4,1.17294,7377.86
588.5,1.17414,7379.00
588.6,1.17568,7380.09
588.7,1.17679,7381.92
588.8,1.17798,7383.04
588.9,1.17952,7384.20
589,1.18054,7385.66
589.1,1.18182,7386.55
589.2,1.18319,7388.01
589.3,1.18438,7389.47
589.4,1.18584,7390.50
589.5,1.18703,7391.97
589.6,1.18814,7392.95
589.7,1.18968,7394.06
589.8,1.19079,7395.63
589.9,1.19215,7396.68
590,1.19352,7398.18
590.1,1.19463,7399.52
590.2,1.19617,7400.41
590.3,1.19719,7401.92
590.4,1.19856,7402.71
590.5,1.20001,7404.14
590.6,1.2012,7405.71
590.7,1.20257,7406.91
590.8,1.20377,7408.21
590.9,1.20496,7409.30
591,1.20641,7410.10
591.1,1.20761,7411.70
591.2,1.20897,7412.98
591.3,1.21034,7414.23
591.4,1.21153,7415.80
591.5,1.2129,7416.71
591.6,1.2141,7417.90
591.7,1.21538,7419.35
591.8,1.21691,7420.48
591.9,1.21802,7422.03
592,1.2193,7423.20
592.1,1.22084,7424.16
592.2,1.22195,7425.52
592.3,1.22332,7426.70
592.4,1.22468,7428.14
592.5,1.22588,7429.64
592.6,1.22742,7430.54
592.7,1.22853,7432.01
592.8,1.22981,7433.03
592.9,1.23134,7434.05
593,1.23245,7435.72
593.1,1.2339,7436.83
593.2,1.23518,7438.21
593.3,1.23638,7439.63
593.4,1.23783,7440.37
593.5,1.23894,7441.65
593.6,1.24031,7442.99
593.7,1.24184,7444.18
593.8,1.24304,7445.95
593.9,1.24441,7446.96
594,1.24569,7447.91
594.1,1.24697,7449.38
594.2,1.2485,7450.47
594.3,1.2497,7452.07
594.4,1.25098,7453.37
594.5,1.2526,7454.27
594.6,1.25363,7455.59
594.7,1.25499,7456.79
594.8,1.25653,7457.97
594.9,1.25764,7459.59
595,1.25918,7460.63
595.1,1.26046,7462.10
595.2,1.26165,7463.23
595.3,1.26319,7464.04
595.4,1.26438,7465.66
595.5,1.26575,7466.91
595.6,1.2672,7468.29
595.7,1.26848,7469.70
595.8,1.26985,7470.53
595.9,1.27104,7471.63
596,1.27241,7473.06
596.1,1.27403,7474.18
596.2,1.27514,7475.85
596.3,1.27651,7476.99
596.4,1.27787,7477.99
596.5,1.27916,7479.44
596.6,1.28061,7480.48
596.7,1.28189,7482.08
596.8,1.28317,7483.35
596.9,1.28479,7484.40
597,1.2859,7485.81
597.1,1.28727,7486.71
597.2,1.28872,7488.19
597.3,1.29,7489.67
597.4,1.29162,7490.61
597.5,1.29273,7492.22
597.6,1.2941,7493.25
597.7,1.29563,7494.12
597.8,1.29674,7495.63
597.9,1.29837,7496.71
598,1.29965,7498.43
598.1,1.30093,7499.72
598.2,1.30255,7500.51
598.3,1.30366,7501.71
598.4,1.30503,7503.00
598.5,1.30665,7504.25
598.6,1.30784,7505.98
598.7,1.30938,7506.98
598.8,1.31066,7507.94
598.9,1.31194,7509.54
599,1.31348,7510.52
599.1,1.31476,7512.08
599.2,1.31604,7513.43
599.3,1.31775,7514.39
599.4,1.31886,7515.68
599.5,1.32031,7516.70
599.6,1.32176,7518.22
599.7,1.32313,7519.78
599.8,1.32475,7520.69
599.9,1.32586,7522.26
600,1.32722,7523.30
600.1,1.32876,7524.17
600.2,1.33004,7525.75
600.3,1.33149,7527.04
600.4,1.33294,7528.45
600.5,1.33422,7529.74
600.6,1.33568,7530.35
600.7,1.33696,7531.94
600.8,1.33841,7533.15
600.9,1.33995,7534.48
601,1.34123,7536.05
601.1,1.34276,7536.87
601.2,1.34396,7538.19
601.3,1.34541,7539.44
601.4,1.34703,7540.73
601.5,1.34823,7542.36
601.6,1.34976,7543.29
601.7,1.35104,7544.49
601.8,1.35241,7545.76
601.9,1.35403,7546.80
602,1.35531,7548.62
602.1,1.35668,7549.70
602.2,1.35822,7550.91
602.3,1.3595,7552.16
602.4,1.36103,7552.89
602.5,1.3624,7554.62
602.6,1.36377,7555.92
602.7,1.36547,7557.10
602.8,1.36667,7558.56
602.9,1.36812,7559.30
603,1.36949,7560.58
603.1,1.37094,7562.03
603.2,1.37265,7563.19
603.3,1.37384,7564.86
603.4,1.37521,7565.76
603.5,1.37683,7566.83
603.6,1.37811,7568.38
603.7,1.37982,7569.42
603.8,1.3811,7571.10
603.9,1.38246,7572.21
604,1.38409,7573.08
604.1,1.38537,7574.66
604.2,1.38699,7575.63
604.3,1.38827,7577.31
604.4,1.38964,7578.60
604.5,1.39134,7579.55
604.6,1.39254,7580.97
604.7,1.39399,7581.76
604.8,1.39553,7583.27
604.9,1.39689,7584.86
605,1.3986,7585.81
605.1,1.3998,7587.21
605.2,1.40116,7588.04
605.3,1.40278,7589.17
605.4,1.40415,7590.92
605.5,1.40569,7592.10
605.6,1.40714,7593.51
605.7,1.40842,7594.57
605.8,1.41004,7595.56
605.9,1.41141,7597.26
606,1.41286,7598.51
606.1,1.41457,7599.60
606.2,1.41576,7600.94
606.3,1.41721,7602.00
606.4,1.41884,7603.29
606.5,1.4202,7604.88
606.6,1.42182,7605.93
606.7,1.42319,7607.35
606.8,1.42447,7608.47
606.9,1.42618,7609.31
607,1.42746,7611.05
607.1,1.42908,7612.19
607.2,1.43062,7613.63
607.3,1.43198,7614.90
607.4,1.43352,7615.50
607.5,1.4348,7617.00
607.6,1.43642,7618.25
607.7,1.43805,7619.61
607.8,1.43933,7621.19
607.9,1.44095,7621.73
608,1.44232,7623.36
608.1,1.44377,7624.82
608.2,1.44556,7625.81
608.3,1.44684,7627.55
608.4,1.44829,7628.28
608.5,1.44991,7629.58
608.6,1.45128,7631.02
608.7,1.45307,7632.04
608.8,1.45444,7633.70
608.9,1.45581,7634.94
609,1.45751,7635.82
609.1,1.45879,7637.12
609.2,1.46033,7638.45
609.3,1.46204,7639.73
609.4,1.4634,7641.24
609.5,1.46494,7642.06
609.6,1.46631,7643.28
609.7,1.46776,7644.46
609.8,1.46955,7645.66
609.9,1.47092,7647.49
610,1.47245,7648.58
610.1,1.47408,7649.37
610.2,1.47544,7651.13
610.3,1.47715,7652.05
610.4,1.47852,7653.67
610.5,1.47997,7654.91
610.6,1.48168,7655.71
610.7,1.48296,7657.38
610.8,1.48466,7658.38
610.9,1.4862,7659.90
611,1.48757,7661.35
611.1,1.48927,7662.15
611.2,1.49064,7663.52
611.3,1.49218,7664.66
611.4,1.49397,7665.94
611.5,1.49525,7667.55
611.6,1.49696,7668.49
611.7,1.49841,7669.70
611.8,1.49978,7670.69
611.9,1.50157,7671.93
612,1.50293,7673.70
612.1,1.50456,7674.83
612.2,1.50609,7675.62
612.3,1.50763,7677.35
612.4,1.50934,7678.32
612.5,1.51079,7679.96
612.6,1.51233,7681.17
612.7,1.51395,7682.01
612.8,1.51531,7683.57
612.9,1.51702,7684.66
613,1.51864,7686.08
613.1,1.5201,7687.64
613.2,1.52189,7688.36
613.3,1.52317,7689.86
613.4,1.52471,7690.92
613.5,1.52658,7692.05
613.6,1.52787,7693.82
613.7,1.52949,7694.80
613.8,1.53094,7695.73
613.9,1.53248,7697.13
614,1.53435,7698.28
614.1,1.53572,7700.09
614.2,1.53726,7701.19
614.3,1.53896,7701.73
614.4,1.54033,7703.63
614.5,1.54204,7704.83
614.6,1.54366,7706.06
614.7,1.54511,7707.67
614.8,1.54673,7708.26
614.9,1.54827,7709.81
615,1.54981,7711.15
615.1,1.55169,7712.24
615.2,1.55297,7713.93
615.3,1.5545,7714.88
615.4,1.55613,7715.80
615.5,1.55766,7717.40
615.6,1.55954,7718.54
615.7,1.56091,7720.16
615.8,1.56244,7721.17
615.9,1.56415,7721.80
616,1.5656,7723.52
616.1,1.56731,7724.74
616.2,1.56893,7726.27
616.3,1.57038,7727.57
616.4,1.57218,7728.32
616.5,1.57354,7729.97
616.6,1.57525,7731.15
616.7,1.57704,7732.42
616.8,1.57841,7733.73
616.9,1.5802,7734.54
617,1.58165,7736.21
617.1,1.58328,7737.52
617.2,1.58507,7738.72
617.3,1.58644,7740.13
617.4,1.58814,7740.91
617.5,1.58968,7742.27
617.6,1.5913,7743.81
617.7,1.59318,7744.93
617.8,1.59455,7746.43
617.9,1.59608,7747.06
618,1.59779,7748.19
618.1,1.59933,7749.97
618.2,1.60121,7751.10
618.3,1.60266,7752.60
618.4,1.60419,7753.52
618.5,1.60607,7754.74
618.6,1.60744,7756.40
618.7,1.60923,7757.49
618.8,1.61068,7758.62
618.9,1.61231,7759.99
619,1.61418,7760.90
619.1,1.61572,7762.65
619.2,1.61726,7763.88
619.3,1.61914,7764.87
619.4,1.6205,7766.30
619.5,1.62221,7767.14
619.6,1.62392,7768.70
619.7,1.62545,7770.29
619.8,1.62733,7771.05
619.9,1.6287,7772.31
620,1.63032,7773.39
620.1,1.63228,7774.72
620.2,1.63374,7776.52
620.3,1.63544,7777.45
620.4,1.63698,7778.39
620.5,1.63869,7779.94
620.6,1.64057,7781.19
620.7,1.64202,7782.77
620.8,1.64364,7783.51
620.9,1.64543,7784.85
621,1.64697,7786.33
621.1,1.64885,7787.32
621.2,1.6503,7788.99
621.3,1.65192,7790.00
621.4,1.6538,7790.78
621.5,1.65525,7792.65
621.6,1.65713,7793.70
621.7,1.65875,7795.21
621.8,1.66029,7796.32
621.9,1.66208,7796.84
622,1.66362,7798.68
622.1,1.66533,7800.01
622.2,1.6672,7801.25
622.3,1.66857,7802.66
622.4,1.67045,7803.46
622.5,1.67207,7805.14
622.6,1.67378,7806.48
622.7,1.67557,7807.40
622.8,1.67702,7808.86
622.9,1.67882,7809.88
623,1.68061,7811.23
623.1,1.68215,7812.86
623.2,1.68411,7813.69
623.3,1.68556,7815.12
623.4,1.68727,7816.02
623.5,1.68915,7817.46
623.6,1.69068,7819.12
623.7,1.69256,7819.82
623.8,1.69401,7820.93
623.9,1.69572,7822.21
624,1.69777,7823.48
624.1,1.69922,7825.33
624.2,1.70084,7826.18
624.3,1.70272,7827.35
624.4,1.70426,7828.98
624.5,1.70622,7830.04
624.6,1.70776,7831.58
624.7,1.70938,7832.35
624.8,1.71135,7833.54
624.9,1.7128,7835.30
625,1.71476,7836.36
625.1,1.71638,7837.68
625.2,1.71792,7838.80
625.3,1.71997,7839.63
625.4,1.72151,7841.59
625.5,1.7233,7842.72
625.6,1.72509,7843.65
625.7,1.72654,7844.91
625.8,1.72851,7845.83
625.9,1.73013,7847.66
626,1.73184,7849.05
626.1,1.73372,7849.88
626.2,1.73525,7851.37
626.3,1.73713,7852.56
626.4,1.73892,7854.01
626.5,1.74046,7855.38
626.6,1.74242,7855.99
626.7,1.74405,7857.73
626.8,1.74567,7859.03
626.9,1.7478,7860.00
627,1.74925,7861.63
627.1,1.75105,7862.28
627.2,1.75284,7863.72
627.3,1.75455,7865.31
627.4,1.7566,7866.27
627.5,1.75796,7867.78
627.6,1.75967,7868.56
627.7,1.76172,7869.82
627.8,1.76334,7871.63
627.9,1.76531,7872.61
628,1.76684,7873.63
628.1,1.76855,7875.07
628.2,1.7706,7876.24
628.3,1.77214,7877.99
628.4,1.77384,7878.76
628.5,1.77572,7880.06
628.6,1.77734,7881.56
628.7,1.77948,7882.57
628.8,1.78102,7884.22
628.9,1.78264,7885.15
629,1.78469,7885.98
629.1,1.78631,7887.85
629.2,1.78819,7889.02
629.3,1.7899,7890.24
629.4,1.79152,7891.17
629.5,1.79348,7892.18
629.6,1.7951,7894.09
629.7,1.7969,7895.33
629.8,1.79877,7896.27
629.9,1.8004,7897.68
630,1.80245,7898.83
630.1,1.80415,7900.29
630.2,1.80578,7901.67
630.3,1.80774,7902.22
630.4,1.80936,7904.02
630.5,1.81124,7905.31
630.6,1.8132,7906.55
630.7,1.81474,7907.88
630.8,1.8167,7908.48
630.9,1.8185,7910.19
631,1.82029,7911.71
631.1,1.82234,7912.62
631.2,1.82371,7913.73
631.3,1.82567,7914.71
631.4,1.82763,7916.35
631.5,1.82925,7918.02
631.6,1.83113,7918.82
631.7,1.83284,7920.24
631.8,1.83463,7921.50
631.9,1.83677,7922.59
632,1.83831,7924.22
632.1,1.8401,7924.93
632.2,1.84198,7926.35
632.3,1.84368,7927.93
632.4,1.84582,7928.96
632.5,1.84727,7930.37
632.6,1.84906,7931.18
632.7,1.85111,7932.65
632.8,1.85273,7934.38
632.9,1.8547,7935.17
633,1.85632,7936.30
633.1,1.85811,7937.52
633.2,1.86025,7938.75
633.3,1.86187,7940.60
633.4,1.86366,7941.45
633.5,1.86554,7942.59
633.6,1.86733,7944.18
633.7,1.86955,7945.16
633.8,1.87101,7946.71
633.9,1.8728,7947.68
634,1.87493,7948.80
634.1,1.87656,7950.60
634.2,1.87852,7951.60
634.3,1.88031,7952.65
634.4,1.88202,7953.90
634.5,1.88415,7955.08
634.6,1.88578,7956.80
634.7,1.88765,7957.88
634.8,1.88953,7958.48
634.9,1.89124,7960.24
635,1.89337,7961.33
635.1,1.89508,7963.04
635.2,1.8967,7963.94
635.3,1.89892,7964.86
635.4,1.90055,7966.81
635.5,1.9026,7967.88
635.6,1.9043,7968.94
635.7,1.9061,7970.29
635.8,1.90823,7971.22
635.9,1.90985,7973.10
636,1.91165,7974.26
636.1,1.9137,7974.99
636.2,1.9154,7976.67
636.3,1.91745,7977.88
636.4,1.91933,7979.26
636.5,1.92095,7980.29
636.6,1.92309,7981.04
636.7,1.92471,7982.89
636.8,1.92676,7984.11
636.9,1.92864,7985.31
637,1.93034,7986.64
637.1,1.93265,7987.60
637.2,1.93427,7989.34
637.3,1.93598,7990.44
637.4,1.9382,7991.28
637.5,1.93982,7992.97
637.6,1.94187,7994.08
637.7,1.94375,7995.44
637.8,1.94546,7996.72
637.9,1.94759,7997.44
638,1.94938,7999.27
638.1,1.95126,8000.73
638.2,1.95331,8001.34
638.3,1.95493,8002.70
638.4,1.95698,8003.92
638.5,1.95895,8005.38
638.6,1.96065,8006.88
638.7,1.96279,8007.54
638.8,1.9645,8009.21
638.9,1.96637,8010.52
639,1.96851,8011.59
639.1,1.97005,8012.80
639.2,1.97218,8013.88
639.3,1.97406,8015.56
639.4,1.97585,8016.99
639.5,1.97799,8017.64
639.6,1.97961,8019.07
639.7,1.98166,8020.28
639.8,1.98371,8021.70
639.9,1.98533,8023.20
640,1.98738,8023.49
640.1,1.98917,8025.23
640.2,1.99113,8026.77
640.3,1.99318,8027.81
640.4,1.99481,8029.18
640.5,1.99694,8030.31
640.6,1.99882,8031.81
640.7,2.00061,8033.26
640.8,2.00283,8033.71
640.9,2.00454,8035.51
641,2.0065,8036.72
641.1,2.00855,8038.03
641.2,2.01026,8039.29
641.3,2.01239,8039.98
641.4,2.01419,8041.79
641.5,2.01632,8043.03
641.6,2.0182,8044.19
641.7,2.01991,8045.22
641.8,2.02213,8046.38
641.9,2.02383,8048.12
642,2.0258,8049.24
642.1,2.02785,8050.05
642.2,2.02964,8051.90
642.3,2.03177,8052.92
642.4,2.03365,8054.34
642.5,2.03536,8055.37
642.6,2.03767,8056.45
642.7,2.03937,8058.27
642.8,2.04134,8059.38
642.809,2.04236,8020.44
642.81,2.04339,7972.40
642.811,2.04467,7900.13
642.812,2.04638,7803.72
642.813,2.04825,7684.85
642.814,2.05047,7545.95
642.815,2.05303,7389.69
642.816,2.05585,7218.49
642.817,2.05893,7034.50
642.818,2.06234,6839.59
642.819,2.0661,6635.45
642.82,2.07011,6423.65
642.821,2.07438,6205.61
642.822,2.07899,5982.65
642.823,2.08386,5756.04
642.824,2.08906,5526.94
642.825,2.09453,5296.41
642.826,2.10025,5065.45
642.827,2.10631,4834.97
