Specimen choice input : Material,Steel,
Specimen properties : Geometry,Rectangular,
Specimen properties : Width,13.03,mm
Specimen properties : Thickness,3.57,mm
,,
Time,Extension,Load
(s),(mm),(N)
0,-1.88569,9.04
0.1,-1.88441,11.86
0.2,-1.88364,12.48
0.3,-1.88279,13.70
0.4,-1.88176,15.00
0.5,-1.88091,16.33
0.6,-1.87997,17.67
0.7,-1.87912,18.90
0.8,-1.87826,20.20
0.9,-1.87749,21.39
1,-1.87673,22.56
1.1,-1.87596,23.84
1.2,-1.87519,25.06
1.3,-1.87442,26.40
1.4,-1.87365,27.62
1.5,-1.87297,28.95
1.6,-1.8722,30.22
1.7,-1.87152,31.48
1.8,-1.87092,32.74
1.9,-1.87024,33.95
2,-1.86964,35.15
2.1,-1.86896,36.36
2.2,-1.86836,37.62
2.3,-1.86768,38.88
2.4,-1.86708,40.12
2.5,-1.86648,41.38
2.6,-1.8658,42.68
2.7,-1.8652,43.97
2.8,-1.86452,45.22
2.9,-1.86392,46.52
3,-1.86332,47.74
3.1,-1.86272,48.99
3.2,-1.86213,50.25
3.3,-1.86153,51.47
3.4,-1.86093,52.71
3.5,-1.86042,53.92
3.6,-1.85982,55.17
3.7,-1.85922,56.39
3.8,-1.85863,57.64
3.9,-1.85803,58.96
4,-1.85752,60.22
4.1,-1.85692,61.50
4.2,-1.85632,62.78
4.3,-1.85572,64.03
4.4,-1.85521,65.29
4.5,-1.85461,66.52
4.6,-1.8541,67.79
4.7,-1.8535,68.98
4.8,-1.85299,70.21
4.9,-1.85239,71.43
5,-1.85188,72.66
5.1,-1.85137,73.88
5.2,-1.85077,75.14
5.3,-1.85026,76.41
5.4,-1.84966,77.67
5.5,-1.84906,78.93
5.6,-1.84855,80.30
5.7,-1.84795,81.46
5.8,-1.84744,82.79
5.9,-1.84684,84.03
6,-1.84633,85.27
6.1,-1.84573,86.55
6.2,-1.84522,87.75
6.3,-1.84471,89.02
6.4,-1.84411,90.24
6.5,-1.8436,91.45
6.6,-1.84309,92.75
6.7,-1.84249,93.96
6.8,-1.84206,95.25
6.9,-1.84146,96.48
7,-1.84087,97.81
7.1,-1.84035,99.11
7.2,-1.83984,100.27
7.3,-1.83933,101.64
7.4,-1.83873,102.82
7.5,-1.83831,104.06
7.6,-1.83771,105.28
7.7,-1.8372,106.56
7.8,-1.83668,107.70
7.9,-1.83626,109.07
8,-1.83566,110.28
8.1,-1.83506,111.42
8.2,-1.83463,112.74
8.3,-1.83412,114.11
8.4,-1.83352,115.25
8.5,-1.8331,116.53
8.6,-1.8325,117.89
8.7,-1.83199,119.13
8.8,-1.83147,120.36
8.9,-1.83105,121.69
9,-1.83045,122.89
9.1,-1.82994,124.07
9.2,-1.82951,125.39
9.3,-1.82891,126.60
9.4,-1.8284,127.79
9.5,-1.82789,129.05
9.6,-1.82738,130.31
9.7,-1.82686,131.52
9.8,-1.82644,132.79
9.9,-1.82584,134.07
10,-1.82533,135.31
10.1,-1.82482,136.63
10.2,-1.8243,137.90
10.3,-1.82379,139.14
10.4,-1.82328,140.45
10.5,-1.82277,141.65
10.6,-1.82225,142.90
10.7,-1.82174,144.15
10.8,-1.82123,145.39
10.9,-1.82072,146.60
11,-1.8202,147.82
11.1,-1.81978,149.09
11.2,-1.81927,150.23
11.3,-1.81875,151.55
11.4,-1.81824,152.78
11.5,-1.81773,154.03
11.6,-1.81722,155.29
11.7,-1.8167,156.56
11.8,-1.81619,157.86
11.9,-1.81568,159.15
12,-1.81517,160.41
12.1,-1.81466,161.66
12.2,-1.81414,162.90
12.3,-1.81372,164.17
12.4,-1.8132,165.41
12.5,-1.81269,166.65
12.6,-1.81218,167.87
12.7,-1.81175,169.08
12.8,-1.81124,170.38
12.9,-1.81064,171.59
13,-1.81022,172.89
13.1,-1.8097,174.13
13.2,-1.80919,175.42
13.3,-1.80868,176.66
13.4,-1.80817,177.95
13.5,-1.80774,179.19
13.6,-1.80723,180.46
13.7,-1.80671,181.71
13.8,-1.8062,183.00
13.9,-1.80569,184.17
14,-1.80526,185.47
14.1,-1.80475,186.64
14.2,-1.80432,187.92
14.3,-1.80381,189.16
14.4,-1.8033,190.40
14.5,-1.80279,191.65
14.6,-1.80228,192.88
14.7,-1.80185,194.18
14.8,-1.80134,195.42
14.9,-1.80082,196.71
15,-1.80031,197.95
15.1,-1.7998,199.25
15.2,-1.79937,200.52
15.3,-1.79886,201.77
15.4,-1.79835,203.03
15.5,-1.79784,204.27
15.6,-1.79741,205.49
15.7,-1.7969,206.77
15.8,-1.79647,207.95
15.9,-1.79596,209.22
16,-1.79544,210.44
16.1,-1.79502,211.72
16.2,-1.79451,212.90
16.3,-1.79399,214.17
16.4,-1.79357,215.46
16.5,-1.79305,216.71
16.6,-1.79254,218.00
16.7,-1.79203,219.23
16.8,-1.79152,220.55
16.9,-1.79109,221.79
17,-1.79058,223.06
17.1,-1.79015,224.29
17.2,-1.78964,225.53
17.3,-1.78913,226.78
17.4,-1.7887,228.01
17.5,-1.78819,229.23
17.6,-1.78776,230.49
17.7,-1.78725,231.74
17.8,-1.78674,232.93
17.9,-1.78631,234.18
18,-1.7858,235.41
18.1,-1.78528,236.69
18.2,-1.78486,237.93
18.3,-1.78435,239.23
18.4,-1.78383,240.48
18.5,-1.78341,241.80
18.6,-1.78289,243.02
18.7,-1.78238,244.31
18.8,-1.78195,245.57
18.9,-1.78144,246.84
19,-1.78093,248.05
19.1,-1.7805,249.31
19.2,-1.77999,250.55
19.3,-1.77956,251.76
19.4,-1.77905,252.97
19.5,-1.77863,254.24
19.6,-1.77811,255.50
19.7,-1.7776,256.79
19.8,-1.77709,258.02
19.9,-1.77666,259.30
20,-1.77615,260.56
20.1,-1.77572,261.83
20.2,-1.77521,263.11
20.3,-1.77478,264.34
20.4,-1.77427,265.59
20.5,-1.77376,266.87
20.6,-1.77333,268.09
20.7,-1.77282,269.35
20.8,-1.77239,270.57
20.9,-1.77197,271.78
21,-1.77145,273.03
21.1,-1.77094,274.31
21.2,-1.77051,275.56
21.3,-1.77,276.77
21.4,-1.76957,278.05
21.5,-1.76906,279.33
21.6,-1.76864,280.58
21.7,-1.76812,281.88
21.8,-1.76761,283.11
21.9,-1.76718,284.41
22,-1.76667,285.62
22.1,-1.76625,286.93
22.2,-1.76573,288.19
22.3,-1.76531,289.42
22.4,-1.76479,290.66
22.5,-1.76437,291.88
22.6,-1.76385,293.12
22.7,-1.76343,294.35
22.8,-1.76292,295.59
22.9,-1.76249,296.86
23,-1.76198,298.05
23.1,-1.76155,299.32
23.2,-1.76104,300.61
23.3,-1.76061,301.86
23.4,-1.7601,303.14
23.5,-1.75967,304.38
23.6,-1.75916,305.70
23.7,-1.75865,306.95
23.8,-1.75822,308.19
23.9,-1.75779,309.48
24,-1.75728,310.68
24.1,-1.75685,311.92
24.2,-1.75634,313.19
24.3,-1.75591,314.41
24.4,-1.7554,315.63
24.5,-1.75497,316.86
24.6,-1.75455,318.10
24.7,-1.75404,319.32
24.8,-1.75361,320.58
24.9,-1.7531,321.82
25,-1.75258,323.08
25.1,-1.75216,324.39
25.2,-1.75164,325.63
25.3,-1.75122,326.92
25.4,-1.75071,328.18
25.5,-1.75028,329.44
25.6,-1.74977,330.70
25.7,-1.74934,331.96
25.8,-1.74883,333.19
25.9,-1.7484,334.43
26,-1.74789,335.70
26.1,-1.74746,336.95
26.2,-1.74703,338.16
26.3,-1.74652,339.42
26.4,-1.7461,340.63
26.5,-1.74558,341.91
26.6,-1.74516,343.18
26.7,-1.74464,344.41
26.8,-1.74422,345.71
26.9,-1.7437,346.94
27,-1.74328,348.25
27.1,-1.74277,349.51
27.2,-1.74234,350.73
27.3,-1.74183,352.00
27.4,-1.7414,353.24
27.5,-1.74089,354.51
27.6,-1.74046,355.78
27.7,-1.74003,356.97
27.8,-1.73952,358.20
27.9,-1.73909,359.44
28,-1.73858,360.72
28.1,-1.73816,361.90
28.2,-1.73764,363.20
28.3,-1.73722,364.45
28.4,-1.7367,365.71
28.5,-1.73628,366.94
28.6,-1.73576,368.25
28.7,-1.73534,369.55
28.8,-1.73483,370.75
28.9,-1.7344,372.08
29,-1.73397,373.27
29.1,-1.73346,374.54
29.2,-1.73303,375.81
29.3,-1.73252,377.07
29.4,-1.73209,378.29
29.5,-1.73167,379.52
29.6,-1.73124,380.79
29.7,-1.73073,381.99
29.8,-1.7303,383.21
29.9,-1.72987,384.46
30,-1.72936,385.74
30.1,-1.72893,386.98
30.2,-1.72842,388.23
30.3,-1.728,389.52
30.4,-1.72748,390.77
30.5,-1.72706,392.03
30.6,-1.72663,393.32
30.7,-1.72612,394.58
30.8,-1.7256,395.86
30.9,-1.72518,397.09
31,-1.72475,398.35
31.1,-1.72432,399.60
31.2,-1.72381,400.81
31.3,-1.72338,402.05
31.4,-1.72296,403.30
31.5,-1.72245,404.52
31.6,-1.72202,405.77
31.7,-1.72159,406.95
31.8,-1.72108,408.22
31.9,-1.72065,409.48
32,-1.72014,410.72
32.1,-1.71971,412.01
32.2,-1.7192,413.28
32.3,-1.71877,414.55
32.4,-1.71826,415.82
32.5,-1.71783,417.10
32.6,-1.71741,418.34
32.7,-1.7169,419.62
32.8,-1.71647,420.88
32.9,-1.71604,422.11
33,-1.71561,423.37
33.1,-1.7151,424.59
33.2,-1.71468,425.84
33.3,-1.71425,426.99
33.4,-1.71374,428.30
33.5,-1.71331,429.55
33.6,-1.71288,430.82
33.7,-1.71237,432.08
33.8,-1.71194,433.35
33.9,-1.71152,434.61
34,-1.711,435.88
34.1,-1.71058,437.11
34.2,-1.71007,438.38
34.3,-1.70964,439.65
34.4,-1.70921,440.90
34.5,-1.7087,442.15
34.6,-1.70827,443.40
34.7,-1.70785,444.67
34.8,-1.70733,445.89
34.9,-1.70691,447.11
35,-1.70648,448.31
35.1,-1.70597,449.62
35.2,-1.70554,450.85
35.3,-1.70511,452.11
35.4,-1.70469,453.39
35.5,-1.70417,454.62
35.6,-1.70375,455.89
35.7,-1.70324,457.16
35.8,-1.70281,458.41
35.9,-1.7023,459.69
36,-1.70187,460.96
36.1,-1.70144,462.20
36.2,-1.70093,463.47
36.3,-1.7005,464.69
36.4,-1.70008,465.97
36.5,-1.69965,467.21
36.6,-1.69914,468.44
36.7,-1.69871,469.64
36.8,-1.69828,470.89
36.9,-1.69777,472.15
37,-1.69734,473.41
37.1,-1.69692,474.61
37.2,-1.69649,475.89
37.3,-1.69598,477.19
37.4,-1.69555,478.44
37.5,-1.69504,479.70
37.6,-1.69461,480.96
37.7,-1.6941,482.21
37.8,-1.69367,483.47
37.9,-1.69325,484.76
38,-1.69273,485.98
38.1,-1.69231,487.29
38.2,-1.69188,488.52
38.3,-1.69145,489.73
38.4,-1.69094,490.96
38.5,-1.69051,492.20
38.6,-1.69009,493.43
38.7,-1.68966,494.64
38.8,-1.68915,495.89
38.9,-1.68872,497.13
39,-1.68829,498.37
39.1,-1.68787,499.63
39.2,-1.68735,500.93
39.3,-1.68693,502.20
39.4,-1.68642,503.48
39.5,-1.68599,504.71
39.6,-1.68556,506.00
39.7,-1.68513,507.27
39.8,-1.68462,508.51
39.9,-1.6842,509.74
40,-1.68368,511.00
40.1,-1.68326,512.24
40.2,-1.68283,513.49
40.3,-1.6824,514.74
40.4,-1.68198,516.00
40.5,-1.68146,517.23
40.6,-1.68104,518.48
40.7,-1.68052,519.72
40.8,-1.6801,520.97
40.9,-1.67967,522.24
41,-1.67924,523.51
41.1,-1.67873,524.76
41.2,-1.6783,526.01
41.3,-1.67788,527.31
41.4,-1.67736,528.57
41.5,-1.67694,529.80
41.6,-1.67651,531.07
41.7,-1.676,532.32
41.8,-1.67557,533.55
41.9,-1.67515,534.80
42,-1.67472,536.03
42.1,-1.67429,537.23
42.2,-1.67378,538.50
42.3,-1.67335,539.75
42.4,-1.67284,541.02
42.5,-1.6725,542.30
42.6,-1.67199,543.53
42.7,-1.67156,544.77
42.8,-1.67113,546.02
42.9,-1.67062,547.32
43,-1.67019,548.56
43.1,-1.66977,549.85
43.2,-1.66925,551.08
43.3,-1.66883,552.35
43.4,-1.6684,553.61
43.5,-1.66789,554.88
43.6,-1.66746,556.12
43.7,-1.66703,557.35
43.8,-1.66661,558.56
43.9,-1.66618,559.81
44,-1.66567,561.06
44.1,-1.66524,562.27
44.2,-1.66481,563.56
44.3,-1.66439,564.78
44.4,-1.66387,566.08
44.5,-1.66345,567.32
44.6,-1.66294,568.58
44.7,-1.66251,569.84
44.8,-1.66208,571.13
44.9,-1.66166,572.35
45,-1.66114,573.66
45.1,-1.66072,574.94
45.2,-1.66029,576.17
45.3,-1.65986,577.44
45.4,-1.65935,578.65
45.5,-1.65892,579.92
45.6,-1.6585,581.13
45.7,-1.65798,582.37
45.8,-1.65756,583.57
45.9,-1.65713,584.83
46,-1.6567,586.03
46.1,-1.65628,587.30
46.2,-1.65585,588.54
46.3,-1.65534,589.82
46.4,-1.65491,591.10
46.5,-1.65448,592.34
46.6,-1.65397,593.60
46.7,-1.65354,594.86
46.8,-1.65312,596.16
46.9,-1.65269,597.40
47,-1.65218,598.69
47.1,-1.65175,599.91
47.2,-1.65132,601.19
47.3,-1.6509,602.43
47.4,-1.65039,603.67
47.5,-1.64996,604.87
47.6,-1.64953,606.14
47.7,-1.6491,607.38
47.8,-1.64868,608.64
47.9,-1.64825,609.89
48,-1.64774,611.12
48.1,-1.64731,612.41
48.2,-1.64688,613.66
48.3,-1.64646,614.89
48.4,-1.64595,616.20
48.5,-1.64552,617.44
48.6,-1.64509,618.72
48.7,-1.64458,619.94
48.8,-1.64415,621.22
48.9,-1.64373,622.47
49,-1.6433,623.70
49.1,-1.64287,624.95
49.2,-1.64244,626.22
49.3,-1.64193,627.44
49.4,-1.64151,628.66
49.5,-1.64108,629.89
49.6,-1.64065,631.17
49.7,-1.64022,632.43
49.8,-1.63971,633.67
49.9,-1.63929,634.93
50,-1.63886,636.18
50.1,-1.63843,637.45
50.2,-1.63801,638.73
50.3,-1.63749,639.99
50.4,-1.63707,641.27
50.5,-1.63664,642.50
50.6,-1.63621,643.74
50.7,-1.63579,645.04
50.8,-1.63536,646.28
50.9,-1.63485,647.54
51,-1.63442,648.77
51.1,-1.63399,649.99
51.2,-1.63357,651.24
51.3,-1.63314,652.46
51.4,-1.63271,653.70
51.5,-1.63228,654.93
51.6,-1.63177,656.20
51.7,-1.63135,657.44
51.8,-1.63092,658.72
51.9,-1.63049,660.00
52,-1.63006,661.24
52.1,-1.62955,662.51
52.2,-1.62913,663.78
52.3,-1.6287,665.08
52.4,-1.62827,666.29
52.5,-1.62784,667.56
52.6,-1.62733,668.80
52.7,-1.62699,670.06
52.8,-1.62656,671.31
52.9,-1.62614,672.56
53,-1.62571,673.77
53.1,-1.62528,674.99
53.2,-1.62477,676.23
53.3,-1.62434,677.43
53.4,-1.62392,678.70
53.5,-1.62349,679.93
53.6,-1.62306,681.21
53.7,-1.62264,682.49
53.8,-1.62221,683.75
53.9,-1.62178,685.00
54,-1.62136,686.26
54.1,-1.62093,687.57
54.2,-1.6205,688.79
54.3,-1.61999,690.07
54.4,-1.61956,691.33
54.5,-1.61914,692.60
54.6,-1.61871,693.84
54.7,-1.61828,695.09
54.8,-1.61786,696.31
54.9,-1.61743,697.58
55,-1.617,698.80
55.1,-1.61657,700.02
55.2,-1.61615,701.25
55.3,-1.61572,702.53
55.4,-1.61529,703.79
55.5,-1.61487,705.07
55.6,-1.61444,706.31
55.7,-1.61401,707.56
55.8,-1.61359,708.85
55.9,-1.61316,710.10
56,-1.61273,711.38
56.1,-1.61222,712.61
56.2,-1.61179,713.89
56.3,-1.61145,715.13
56.4,-1.61094,716.37
56.5,-1.6106,717.63
56.6,-1.61017,718.87
56.7,-1.60974,720.12
56.8,-1.60932,721.34
56.9,-1.60889,722.59
57,-1.60846,723.84
57.1,-1.60804,725.05
57.2,-1.60761,726.33
57.3,-1.60718,727.59
57.4,-1.60676,728.87
57.5,-1.60633,730.12
57.6,-1.6059,731.39
57.7,-1.60548,732.62
57.8,-1.60505,733.92
57.9,-1.60462,735.17
58,-1.60419,736.45
58.1,-1.60377,737.71
58.2,-1.60334,738.94
58.3,-1.60291,740.18
58.4,-1.6024,741.40
58.5,-1.60206,742.69
58.6,-1.60163,743.90
58.7,-1.60121,745.13
58.8,-1.60078,746.40
58.9,-1.60035,747.62
59,-1.59993,748.88
59.1,-1.5995,750.10
59.2,-1.59907,751.35
59.3,-1.59864,752.63
59.4,-1.59822,753.91
59.5,-1.59779,755.16
59.6,-1.59736,756.42
59.7,-1.59694,757.68
59.8,-1.59651,758.92
59.9,-1.59608,760.22
60,-1.59566,761.46
60.1,-1.59523,762.75
60.2,-1.5948,764.01
60.3,-1.59438,765.19
60.4,-1.59403,766.45
60.5,-1.59352,767.69
60.6,-1.59318,768.95
60.7,-1.59275,770.14
60.8,-1.59233,771.40
60.9,-1.5919,772.61
61,-1.59147,773.90
61.1,-1.59105,775.12
61.2,-1.5907,776.40
61.3,-1.59019,777.65
61.4,-1.58977,778.92
61.5,-1.58942,780.18
61.6,-1.589,781.40
61.7,-1.58857,782.70
61.8,-1.58814,783.97
61.9,-1.58772,785.24
62,-1.58729,786.51
62.1,-1.58686,787.75
62.2,-1.58644,789.01
62.3,-1.58601,790.26
62.4,-1.58558,791.48
62.5,-1.58516,792.75
62.6,-1.58473,793.98
62.7,-1.5843,795.21
62.8,-1.58396,796.42
62.9,-1.58353,797.70
63,-1.58311,798.93
63.1,-1.58268,800.24
63.2,-1.58225,801.47
63.3,-1.58183,802.73
63.4,-1.5814,803.98
63.5,-1.58097,805.28
63.6,-1.58054,806.50
63.7,-1.58012,807.78
63.8,-1.57969,809.03
63.9,-1.57926,810.30
64,-1.57892,811.55
64.1,-1.5785,812.85
64.2,-1.57807,814.01
64.3,-1.57764,815.26
64.4,-1.57721,816.55
64.5,-1.57679,817.77
64.6,-1.57645,819.04
64.7,-1.57602,820.25
64.8,-1.57559,821.47
64.9,-1.57517,822.73
65,-1.57474,823.99
65.1,-1.57431,825.30
65.2,-1.57388,826.50
65.3,-1.57346,827.79
65.4,-1.57303,829.03
65.5,-1.5726,830.33
65.6,-1.57226,831.58
65.7,-1.57184,832.86
65.8,-1.57141,834.09
65.9,-1.57098,835.34
66,-1.57056,836.59
66.1,-1.57013,837.86
66.2,-1.5697,839.08
66.3,-1.56936,840.35
66.4,-1.56893,841.52
66.5,-1.56851,842.81
66.6,-1.56808,844.06
66.7,-1.56765,845.32
66.8,-1.56731,846.55
66.9,-1.5668,847.80
67,-1.56646,849.03
67.1,-1.56603,850.31
67.2,-1.5656,851.57
67.3,-1.56518,852.84
67.4,-1.56475,854.08
67.5,-1.56432,855.38
67.6,-1.5639,856.63
67.7,-1.56355,857.85
67.8,-1.56313,859.16
67.9,-1.5627,860.40
68,-1.56227,861.63
68.1,-1.56185,862.91
68.2,-1.5615,864.12
68.3,-1.56108,865.39
68.4,-1.56065,866.60
68.5,-1.56022,867.89
68.6,-1.5598,869.06
68.7,-1.55937,870.32
68.8,-1.55903,871.51
68.9,-1.5586,872.78
69,-1.55818,874.02
69.1,-1.55775,875.28
69.2,-1.55732,876.59
69.3,-1.55689,877.83
69.4,-1.55647,879.10
69.5,-1.55604,880.34
69.6,-1.5557,881.64
69.7,-1.55527,882.91
69.8,-1.55485,884.15
69.9,-1.55442,885.40
70,-1.55399,886.70
70.1,-1.55365,887.91
70.2,-1.55322,889.21
70.3,-1.5528,890.42
70.4,-1.55237,891.67
70.5,-1.55203,892.92
70.6,-1.5516,894.10
70.7,-1.55117,895.36
70.8,-1.55075,896.64
70.9,-1.55032,897.90
71,-1.54989,899.14
71.1,-1.54947,900.40
71.2,-1.54912,901.66
71.3,-1.5487,902.90
71.4,-1.54827,904.19
71.5,-1.54784,905.43
71.6,-1.54742,906.67
71.7,-1.54708,907.99
71.8,-1.54665,909.18
71.9,-1.54622,910.43
72,-1.5458,911.69
72.1,-1.54537,912.96
72.2,-1.54503,914.21
72.3,-1.5446,915.44
72.4,-1.54417,916.66
72.5,-1.54375,917.90
72.6,-1.54332,919.16
72.7,-1.54298,920.41
72.8,-1.54255,921.67
72.9,-1.54212,922.92
73,-1.5417,924.15
73.1,-1.54127,925.48
73.2,-1.54084,926.73
73.3,-1.54042,927.97
73.4,-1.54007,929.25
73.5,-1.53965,930.47
73.6,-1.53922,931.77
73.7,-1.53879,933.04
73.8,-1.53837,934.28
73.9,-1.53803,935.52
74,-1.5376,936.78
74.1,-1.53717,938.03
74.2,-1.53674,939.26
74.3,-1.5364,940.50
74.4,-1.53598,941.73
74.5,-1.53555,942.95
74.6,-1.53521,944.24
74.7,-1.53478,945.46
74.8,-1.53435,946.72
74.9,-1.53393,947.97
75,-1.5335,949.19
75.1,-1.53307,950.50
75.2,-1.53265,951.75
75.3,-1.53231,953.00
75.4,-1.53188,954.29
75.5,-1.53145,955.52
75.6,-1.53111,956.81
75.7,-1.5306,958.06
75.8,-1.53026,959.36
75.9,-1.52983,960.57
76,-1.52949,961.81
76.1,-1.52906,963.03
76.2,-1.52863,964.26
76.3,-1.52821,965.51
76.4,-1.52778,966.77
76.5,-1.52744,968.01
76.6,-1.52701,969.25
76.7,-1.52667,970.45
76.8,-1.52624,971.71
76.9,-1.52582,972.94
77,-1.52539,974.23
77.1,-1.52496,975.49
77.2,-1.52462,976.76
77.3,-1.52419,978.00
77.4,-1.52377,979.30
77.5,-1.52334,980.58
77.6,-1.52291,981.81
77.7,-1.52249,983.08
77.8,-1.52215,984.34
77.9,-1.52172,985.59
78,-1.52129,986.85
78.1,-1.52086,988.06
78.2,-1.52052,989.35
78.3,-1.5201,990.56
78.4,-1.51967,991.85
78.5,-1.51933,993.03
78.6,-1.5189,994.29
78.7,-1.51847,995.53
78.8,-1.51805,996.81
78.9,-1.51771,998.02
79,-1.51728,999.28
79.1,-1.51685,1000.56
79.2,-1.51651,1001.84
79.3,-1.51608,1003.09
79.4,-1.51566,1004.35
79.5,-1.51523,1005.61
79.6,-1.5148,1006.86
79.7,-1.51446,1008.12
79.8,-1.51403,1009.37
79.9,-1.51361,1010.65
80,-1.51327,1011.86
80.1,-1.51284,1013.16
80.2,-1.51241,1014.40
80.3,-1.51198,1015.61
80.4,-1.51164,1016.87
80.5,-1.51122,1018.12
80.6,-1.51079,1019.33
80.7,-1.51045,1020.56
80.8,-1.51002,1021.82
80.9,-1.50959,1023.11
81,-1.50917,1024.35
81.1,-1.50883,1025.62
81.2,-1.5084,1026.87
81.3,-1.50797,1028.14
81.4,-1.50755,1029.43
81.5,-1.50712,1030.66
81.6,-1.50678,1031.97
81.7,-1.50635,1033.18
81.8,-1.50592,1034.47
81.9,-1.50558,1035.68
82,-1.50515,1036.95
82.1,-1.50473,1038.16
82.2,-1.50439,1039.45
82.3,-1.50396,1040.65
82.4,-1.50353,1041.90
82.5,-1.50311,1043.13
82.6,-1.50276,1044.40
82.7,-1.50234,1045.62
82.8,-1.50191,1046.88
82.9,-1.50157,1048.10
83,-1.50114,1049.37
83.1,-1.50071,1050.64
83.2,-1.50037,1051.91
83.3,-1.49995,1053.12
83.4,-1.49952,1054.47
83.5,-1.49909,1055.70
83.6,-1.49875,1056.99
83.7,-1.49832,1058.17
83.8,-1.4979,1059.51
83.9,-1.49756,1060.77
84,-1.49713,1061.97
84.1,-1.4967,1063.28
84.2,-1.49627,1064.44
84.3,-1.49593,1065.74
84.4,-1.49551,1066.95
84.5,-1.49517,1068.21
84.6,-1.49474,1069.45
84.7,-1.4944,1070.62
84.8,-1.49397,1071.91
84.9,-1.49354,1073.11
85,-1.49312,1074.41
85.1,-1.49277,1075.62
85.2,-1.49235,1076.90
85.3,-1.49192,1078.19
85.4,-1.49158,1079.44
85.5,-1.49115,1080.70
85.6,-1.49073,1081.98
85.7,-1.4903,1083.23
85.8,-1.48996,1084.50
85.9,-1.48953,1085.82
86,-1.48919,1087.00
86.1,-1.48876,1088.24
86.2,-1.48833,1089.54
86.3,-1.48799,1090.74
86.4,-1.48757,1091.99
86.5,-1.48714,1093.20
86.6,-1.4868,1094.42
86.7,-1.48637,1095.73
86.8,-1.48603,1096.99
86.9,-1.4856,1098.24
87,-1.48518,1099.52
87.1,-1.48475,1100.70
87.2,-1.48441,1101.99
87.3,-1.48398,1103.25
87.4,-1.48364,1104.53
87.5,-1.48321,1105.80
87.6,-1.48279,1106.99
87.7,-1.48236,1108.27
87.8,-1.48202,1109.58
87.9,-1.48159,1110.78
88,-1.48116,1112.04
88.1,-1.48074,1113.32
88.2,-1.48039,1114.56
88.3,-1.47997,1115.81
88.4,-1.47963,1117.04
88.5,-1.4792,1118.28
88.6,-1.47877,1119.48
88.7,-1.47843,1120.79
88.8,-1.478,1122.00
88.9,-1.47758,1123.31
89,-1.47724,1124.52
89.1,-1.47681,1125.77
89.2,-1.47638,1127.01
89.3,-1.47604,1128.32
89.4,-1.47561,1129.62
89.5,-1.47519,1130.83
89.6,-1.47484,1132.08
89.7,-1.47442,1133.35
89.8,-1.47399,1134.57
89.9,-1.47365,1135.87
90,-1.47322,1137.12
90.1,-1.4728,1138.36
90.2,-1.47245,1139.61
90.3,-1.47203,1140.86
90.4,-1.47169,1142.09
90.5,-1.47126,1143.36
90.6,-1.47083,1144.60
90.7,-1.47049,1145.82
90.8,-1.47006,1147.05
90.9,-1.46972,1148.35
91,-1.4693,1149.54
91.1,-1.46887,1150.83
91.2,-1.46844,1152.04
91.3,-1.4681,1153.33
91.4,-1.46767,1154.57
91.5,-1.46725,1155.86
91.6,-1.4669,1157.13
91.7,-1.46648,1158.39
91.8,-1.46605,1159.68
91.9,-1.46571,1160.94
92,-1.46528,1162.15
92.1,-1.46486,1163.45
92.2,-1.46451,1164.66
92.3,-1.46409,1165.96
92.4,-1.46366,1167.14
92.5,-1.46332,1168.37
92.6,-1.46289,1169.67
92.7,-1.46255,1170.84
92.8,-1.46212,1172.13
92.9,-1.4617,1173.27
93,-1.46135,1174.57
93.1,-1.46093,1175.83
93.2,-1.4605,1177.06
93.3,-1.46016,1178.33
93.4,-1.45973,1179.58
93.5,-1.45931,1180.89
93.6,-1.45896,1182.10
93.7,-1.45854,1183.40
93.8,-1.4582,1184.64
93.9,-1.45777,1185.93
94,-1.45743,1187.18
94.1,-1.457,1188.44
94.2,-1.45657,1189.67
94.3,-1.45623,1191.00
94.4,-1.45581,1192.17
94.5,-1.45538,1193.47
94.6,-1.45495,1194.66
94.7,-1.45461,1195.88
94.8,-1.45427,1197.15
94.9,-1.45384,1198.37
95,-1.45341,1199.71
95.1,-1.45307,1200.90
95.2,-1.45265,1202.18
95.3,-1.45222,1203.41
95.4,-1.45188,1204.69
95.5,-1.45145,1205.96
95.6,-1.45102,1207.17
95.7,-1.45068,1208.48
95.8,-1.45026,1209.71
95.9,-1.44991,1210.96
96,-1.44949,1212.24
96.1,-1.44906,1213.45
96.2,-1.44872,1214.77
96.3,-1.44829,1215.96
96.4,-1.44786,1217.21
96.5,-1.44752,1218.48
96.6,-1.4471,1219.74
96.7,-1.44676,1220.96
96.8,-1.44633,1222.17
96.9,-1.4459,1223.42
97,-1.44556,1224.69
97.1,-1.44513,1225.93
97.2,-1.44479,1227.20
97.3,-1.44436,1228.47
97.4,-1.44394,1229.70
97.5,-1.44351,1230.95
97.6,-1.44317,1232.20
97.7,-1.44274,1233.53
97.8,-1.44232,1234.72
97.9,-1.44197,1236.06
98,-1.44155,1237.25
98.1,-1.44112,1238.56
98.2,-1.44078,1239.80
98.3,-1.44035,1241.05
98.4,-1.44001,1242.32
98.5,-1.43958,1243.50
98.6,-1.43924,1244.82
98.7,-1.43881,1246.01
98.8,-1.43839,1247.25
98.9,-1.43805,1248.54
99,-1.4377,1249.73
99.1,-1.43728,1251.02
99.2,-1.43685,1252.24
99.3,-1.43642,1253.47
99.4,-1.43608,1254.77
99.5,-1.43566,1255.97
99.6,-1.43531,1257.25
99.7,-1.43489,1258.50
99.8,-1.43446,1259.82
99.9,-1.43412,1261.10
100,-1.43369,1262.31
100.1,-1.43335,1263.65
100.2,-1.43292,1264.82
100.3,-1.4325,1266.08
100.4,-1.43207,1267.35
100.5,-1.43173,1268.53
100.6,-1.43139,1269.88
100.7,-1.43096,1271.08
100.8,-1.43053,1272.34
100.9,-1.43019,1273.54
101,-1.42976,1274.84
101.1,-1.42942,1276.01
101.2,-1.429,1277.19
101.3,-1.42865,1278.50
101.4,-1.42823,1279.74
101.5,-1.4278,1281.00
101.6,-1.42746,1282.29
101.7,-1.42703,1283.55
101.8,-1.42669,1284.80
101.9,-1.42618,1286.00
102,-1.42584,1287.30
102.1,-1.42541,1288.59
102.2,-1.42507,1289.81
102.3,-1.42473,1291.14
102.4,-1.4243,1292.37
102.5,-1.42396,1293.68
102.6,-1.42345,1294.87
102.7,-1.4231,1296.15
102.8,-1.42276,1297.35
102.9,-1.42234,1298.61
103,-1.422,1299.79
103.1,-1.42157,1301.05
103.2,-1.42123,1302.34
103.3,-1.42071,1303.55
103.4,-1.42037,1304.82
103.5,-1.42003,1306.12
103.6,-1.4196,1307.36
103.7,-1.41918,1308.65
103.8,-1.41875,1309.87
103.9,-1.41841,1311.15
104,-1.41798,1312.35
104.1,-1.41764,1313.66
104.2,-1.41721,1314.92
104.3,-1.41679,1316.21
104.4,-1.41645,1317.39
104.5,-1.41602,1318.67
104.6,-1.41568,1319.92
104.7,-1.41525,1321.20
104.8,-1.41482,1322.42
104.9,-1.41448,1323.65
105,-1.41405,1324.86
105.1,-1.41371,1326.10
105.2,-1.41329,1327.31
105.3,-1.41286,1328.65
105.4,-1.41252,1329.86
105.5,-1.41209,1331.17
105.6,-1.41175,1332.41
105.7,-1.41132,1333.63
105.8,-1.41098,1334.91
105.9,-1.41055,1336.21
106,-1.41013,1337.46
106.1,-1.40979,1338.71
106.2,-1.40936,1339.98
106.3,-1.40893,1341.21
106.4,-1.40859,1342.47
106.5,-1.40816,1343.78
106.6,-1.40782,1344.99
106.7,-1.4074,1346.21
106.8,-1.40705,1347.50
106.9,-1.40663,1348.71
107,-1.40629,1349.95
107.1,-1.40586,1351.22
107.2,-1.40543,1352.43
107.3,-1.40509,1353.73
107.4,-1.40466,1354.90
107.5,-1.40432,1356.20
107.6,-1.40389,1357.44
107.7,-1.40355,1358.68
107.8,-1.40313,1359.92
107.9,-1.4027,1361.20
108,-1.40236,1362.49
108.1,-1.40193,1363.73
108.2,-1.40159,1365.02
108.3,-1.40108,1366.23
108.4,-1.40074,1367.53
108.5,-1.40031,1368.76
108.6,-1.39997,1370.07
108.7,-1.39963,1371.30
108.8,-1.39911,1372.48
108.9,-1.39886,1373.82
109,-1.39843,1375.01
109.1,-1.398,1376.25
109.2,-1.39766,1377.48
109.3,-1.39723,1378.73
109.4,-1.39689,1379.94
109.5,-1.39647,1381.16
109.6,-1.39613,1382.44
109.7,-1.3957,1383.67
109.8,-1.39527,1384.95
109.9,-1.39493,1386.20
110,-1.39459,1387.43
110.1,-1.39416,1388.75
110.2,-1.39373,1389.97
110.3,-1.39339,1391.27
110.4,-1.39297,1392.54
110.5,-1.39254,1393.80
110.6,-1.3922,1395.04
110.7,-1.39177,1396.32
110.8,-1.39143,1397.55
110.9,-1.391,1398.77
111,-1.39066,1400.05
111.1,-1.39023,1401.34
111.2,-1.38981,1402.55
111.3,-1.38947,1403.76
111.4,-1.38904,1405.01
111.5,-1.3887,1406.28
111.6,-1.38827,1407.51
111.7,-1.38793,1408.77
111.8,-1.3875,1409.98
111.9,-1.38707,1411.30
112,-1.38673,1412.57
112.1,-1.38631,1413.78
112.2,-1.38596,1415.07
112.3,-1.38554,1416.25
112.4,-1.3852,1417.59
112.5,-1.38477,1418.87
112.6,-1.38434,1420.10
112.7,-1.384,1421.36
112.8,-1.38357,1422.59
112.9,-1.38323,1423.86
113,-1.38281,1425.05
113.1,-1.38246,1426.38
113.2,-1.38204,1427.54
113.3,-1.3817,1428.85
113.4,-1.38127,1430.10
113.5,-1.38093,1431.29
113.6,-1.3805,1432.56
113.7,-1.38007,1433.79
113.8,-1.37973,1435.09
113.9,-1.37931,1436.33
114,-1.37888,1437.52
114.1,-1.37854,1438.84
114.2,-1.37811,1440.08
114.3,-1.37777,1441.37
114.4,-1.37734,1442.59
114.5,-1.377,1443.88
114.6,-1.37657,1445.15
114.7,-1.37615,1446.43
114.8,-1.3758,1447.67
114.9,-1.37538,1448.92
115,-1.37495,1450.14
115.1,-1.37461,1451.39
115.2,-1.37418,1452.63
115.3,-1.37384,1453.89
115.4,-1.37341,1455.04
115.5,-1.37307,1456.41
115.6,-1.37265,1457.58
115.7,-1.3723,1458.83
115.8,-1.37188,1460.12
115.9,-1.37154,1461.31
116,-1.37111,1462.63
116.1,-1.37068,1463.81
116.2,-1.37034,1465.15
116.3,-1.36991,1466.38
116.4,-1.36949,1467.68
116.5,-1.36915,1468.91
116.6,-1.36872,1470.11
116.7,-1.36838,1471.50
116.8,-1.36795,1472.66
116.9,-1.36761,1473.95
117,-1.36718,1475.21
117.1,-1.36684,1476.44
117.2,-1.36641,1477.73
117.3,-1.36599,1478.90
117.4,-1.36564,1480.21
117.5,-1.36522,1481.41
117.6,-1.36488,1482.65
117.7,-1.36453,1483.90
117.8,-1.36411,1485.09
117.9,-1.36377,1486.32
118,-1.36334,1487.60
118.1,-1.363,1488.89
118.2,-1.36257,1490.12
118.3,-1.36214,1491.35
118.4,-1.3618,1492.70
118.5,-1.36138,1493.88
118.6,-1.36095,1495.21
118.7,-1.36052,1496.40
118.8,-1.36018,1497.71
118.9,-1.35984,1498.99
119,-1.35941,1500.23
119.1,-1.35907,1501.50
119.2,-1.35856,1502.72
119.3,-1.35822,1503.97
119.4,-1.35779,1505.22
119.5,-1.35745,1506.49
119.6,-1.35711,1507.67
119.7,-1.35668,1508.92
119.8,-1.35634,1510.19
119.9,-1.35591,1511.45
120,-1.35557,1512.71
120.1,-1.35514,1513.92
120.2,-1.35472,1515.21
120.3,-1.35437,1516.45
120.4,-1.35395,1517.72
120.5,-1.35361,1519.01
120.6,-1.35318,1520.19
120.7,-1.35275,1521.52
120.8,-1.35241,1522.79
120.9,-1.35198,1524.01
121,-1.35164,1525.30
121.1,-1.35122,1526.51
121.2,-1.35087,1527.83
121.3,-1.35045,1529.01
121.4,-1.35011,1530.27
121.5,-1.34968,1531.51
121.6,-1.34934,1532.73
121.7,-1.34891,1534.02
121.8,-1.34848,1535.19
121.9,-1.34814,1536.47
122,-1.3478,1537.72
122.1,-1.34737,1539.01
122.2,-1.34703,1540.23
122.3,-1.3466,1541.46
122.4,-1.34626,1542.75
122.5,-1.34575,1544.00
122.6,-1.34541,1545.29
122.7,-1.34507,1546.56
122.8,-1.34464,1547.81
122.9,-1.34421,1549.08
123,-1.34379,1550.28
123.1,-1.34345,1551.65
123.2,-1.3431,1552.84
123.3,-1.34268,1554.06
123.4,-1.34234,1555.33
123.5,-1.34191,1556.58
123.6,-1.34157,1557.83
123.7,-1.34114,1559.10
123.8,-1.34071,1560.36
123.9,-1.34037,1561.55
124,-1.33995,1562.74
124.1,-1.3396,1564.03
124.2,-1.33918,1565.28
124.3,-1.33884,1566.53
124.4,-1.33841,1567.81
124.5,-1.33807,1569.08
124.6,-1.33764,1570.31
124.7,-1.33721,1571.58
124.8,-1.33687,1572.89
124.9,-1.33644,1574.06
125,-1.3361,1575.41
125.1,-1.33568,1576.63
125.2,-1.33533,1577.90
125.3,-1.33491,1579.17
125.4,-1.33448,1580.35
125.5,-1.33414,1581.67
125.6,-1.3338,1582.89
125.7,-1.33337,1584.15
125.8,-1.33303,1585.34
125.9,-1.3326,1586.57
126,-1.33226,1587.85
126.1,-1.33183,1589.14
126.2,-1.33149,1590.28
126.3,-1.33107,1591.55
126.4,-1.33064,1592.77
126.5,-1.3303,1594.09
126.6,-1.32987,1595.30
126.7,-1.32953,1596.54
126.8,-1.3291,1597.86
126.9,-1.32868,1599.16
127,-1.32833,1600.39
127.1,-1.32791,1601.59
127.2,-1.32757,1602.93
127.3,-1.32714,1604.14
127.4,-1.3268,1605.39
127.5,-1.32637,1606.69
127.6,-1.32594,1607.87
127.7,-1.3256,1609.15
127.8,-1.32526,1610.43
127.9,-1.32483,1611.66
128,-1.32449,1612.94
128.1,-1.32406,1614.02
128.2,-1.32372,1615.38
128.3,-1.3233,1616.59
128.4,-1.32287,1617.90
128.5,-1.32253,1619.17
128.6,-1.3221,1620.36
128.7,-1.32176,1621.68
128.8,-1.32133,1622.85
128.9,-1.32091,1624.21
129,-1.32056,1625.43
129.1,-1.32014,1626.70
129.2,-1.3198,1627.95
129.3,-1.31937,1629.19
129.4,-1.31903,1630.48
129.5,-1.3186,1631.71
129.6,-1.31826,1632.99
129.7,-1.31783,1634.24
129.8,-1.3174,1635.44
129.9,-1.31706,1636.66
130,-1.31672,1637.98
130.1,-1.3163,1639.14
130.2,-1.31595,1640.44
130.3,-1.31553,1641.66
130.4,-1.3151,1642.93
130.5,-1.31476,1644.17
130.6,-1.31433,1645.41
130.7,-1.31399,1646.70
130.8,-1.31356,1647.90
130.9,-1.31314,1649.23
131,-1.31279,1650.45
131.1,-1.31237,1651.73
131.2,-1.31203,1652.98
131.3,-1.3116,1654.22
131.4,-1.31117,1655.48
131.5,-1.31083,1656.81
131.6,-1.3104,1658.01
131.7,-1.31006,1659.25
131.8,-1.30964,1660.54
131.9,-1.30929,1661.78
132,-1.30887,1662.98
132.1,-1.30853,1664.25
132.2,-1.3081,1665.49
132.3,-1.30767,1666.67
132.4,-1.30742,1668.00
132.5,-1.3069,1669.20
132.6,-1.30656,1670.46
132.7,-1.30613,1671.77
132.8,-1.30579,1672.90
132.9,-1.30537,1674.20
133,-1.30494,1675.49
133.1,-1.3046,1676.79
133.2,-1.30426,1678.03
133.3,-1.30383,1679.25
133.4,-1.3034,1680.59
133.5,-1.30306,1681.81
133.6,-1.30263,1683.07
133.7,-1.30229,1684.32
133.8,-1.30187,1685.57
133.9,-1.30152,1686.85
134,-1.3011,1688.05
134.1,-1.30076,1689.33
134.2,-1.30033,1690.56
134.3,-1.2999,1691.74
134.4,-1.29956,1693.03
134.5,-1.29913,1694.23
134.6,-1.29879,1695.50
134.7,-1.29845,1696.74
134.8,-1.29802,1697.94
134.9,-1.2976,1699.21
135,-1.29717,1700.46
135.1,-1.29683,1701.75
135.2,-1.2964,1703.05
135.3,-1.29606,1704.24
135.4,-1.29572,1705.61
135.5,-1.29529,1706.81
135.6,-1.29486,1708.10
135.7,-1.29452,1709.31
135.8,-1.2941,1710.60
135.9,-1.29376,1711.93
136,-1.29324,1713.01
136.1,-1.2929,1714.35
136.2,-1.29256,1715.57
136.3,-1.29213,1716.84
136.4,-1.29179,1718.03
136.5,-1.29136,1719.24
136.6,-1.29102,1720.59
136.7,-1.29068,1721.82
136.8,-1.29025,1723.05
136.9,-1.28991,1724.38
137,-1.2894,1725.56
137.1,-1.28906,1726.82
137.2,-1.28872,1728.10
137.3,-1.28829,1729.38
137.4,-1.28795,1730.62
137.5,-1.28752,1731.85
137.6,-1.28718,1733.16
137.7,-1.28675,1734.39
137.8,-1.28633,1735.66
137.9,-1.28599,1737.00
138,-1.28556,1738.12
138.1,-1.28522,1739.43
138.2,-1.28479,1740.62
138.3,-1.28445,1741.82
138.4,-1.28402,1743.11
138.5,-1.28359,1744.30
138.6,-1.28325,1745.66
138.7,-1.28283,1746.85
138.8,-1.28248,1748.08
138.9,-1.28214,1749.40
139,-1.28172,1750.59
139.1,-1.28129,1751.86
139.2,-1.28095,1753.16
139.3,-1.28052,1754.38
139.4,-1.28018,1755.67
139.5,-1.27975,1756.93
139.6,-1.27933,1758.21
139.7,-1.27898,1759.45
139.8,-1.27856,1760.68
139.9,-1.27822,1761.97
140,-1.27779,1763.14
140.1,-1.27736,1764.46
140.2,-1.27702,1765.65
140.3,-1.27659,1766.97
140.4,-1.27625,1768.21
140.5,-1.27583,1769.37
140.6,-1.27548,1770.74
140.7,-1.27514,1771.92
140.8,-1.27472,1773.15
140.9,-1.27437,1774.46
141,-1.27395,1775.61
141.1,-1.27352,1776.87
141.2,-1.27318,1778.13
141.3,-1.27275,1779.43
141.4,-1.27241,1780.69
141.5,-1.27198,1781.94
141.6,-1.27164,1783.25
141.7,-1.27121,1784.54
141.8,-1.27079,1785.72
141.9,-1.27045,1786.98
142,-1.27002,1788.26
142.1,-1.26968,1789.51
142.2,-1.26925,1790.70
142.3,-1.26891,1791.97
142.4,-1.26848,1793.28
142.5,-1.26806,1794.44
142.6,-1.26771,1795.74
142.7,-1.26737,1796.96
142.8,-1.26695,1798.21
142.9,-1.2666,1799.51
143,-1.26618,1800.66
143.1,-1.26584,1801.89
143.2,-1.26541,1803.10
143.3,-1.26498,1804.43
143.4,-1.26464,1805.66
143.5,-1.26421,1806.97
143.6,-1.26387,1808.24
143.7,-1.26345,1809.42
143.8,-1.26302,1810.78
143.9,-1.26268,1812.00
144,-1.26225,1813.25
144.1,-1.26191,1814.56
144.2,-1.26148,1815.71
144.3,-1.26105,1817.07
144.4,-1.26071,1818.27
144.5,-1.26029,1819.56
144.6,-1.25994,1820.81
144.7,-1.25952,1821.99
144.8,-1.25918,1823.23
144.9,-1.25883,1824.52
145,-1.25841,1825.70
145.1,-1.25807,1827.02
145.2,-1.25764,1828.20
145.3,-1.25721,1829.50
145.4,-1.25687,1830.73
145.5,-1.25644,1832.01
145.6,-1.2561,1833.30
145.7,-1.25568,1834.54
145.8,-1.25525,1835.88
145.9,-1.25491,1837.02
146,-1.25448,1838.27
146.1,-1.25414,1839.59
146.2,-1.25371,1840.86
146.3,-1.25329,1842.11
146.4,-1.25294,1843.38
146.5,-1.25252,1844.55
146.6,-1.25218,1845.82
146.7,-1.25175,1846.98
146.8,-1.25132,1848.27
146.9,-1.25098,1849.55
147,-1.25055,1850.79
147.1,-1.25021,1852.05
147.2,-1.24978,1853.27
147.3,-1.24944,1854.52
147.4,-1.24902,1855.80
147.5,-1.24859,1857.03
147.6,-1.24825,1858.33
147.7,-1.24782,1859.56
147.8,-1.24748,1860.84
147.9,-1.24705,1862.24
148,-1.24663,1863.30
148.1,-1.24628,1864.70
148.2,-1.24586,1865.82
148.3,-1.24543,1867.16
148.4,-1.24509,1868.37
148.5,-1.24466,1869.59
148.6,-1.24432,1870.90
148.7,-1.24389,1872.07
148.8,-1.24355,1873.36
148.9,-1.24321,1874.64
149,-1.24278,1875.81
149.1,-1.24236,1877.07
149.2,-1.24202,1878.33
149.3,-1.24159,1879.55
149.4,-1.24125,1880.83
149.5,-1.24082,1882.06
149.6,-1.24039,1883.36
149.7,-1.24005,1884.65
149.8,-1.23962,1885.87
149.9,-1.23928,1887.17
150,-1.23886,1888.39
150.1,-1.23851,1889.74
150.2,-1.23809,1890.96
150.3,-1.23766,1892.19
150.4,-1.23732,1893.43
150.5,-1.23689,1894.68
150.6,-1.23655,1895.95
150.7,-1.23612,1897.15
150.8,-1.2357,1898.36
150.9,-1.23536,1899.68
151,-1.23493,1900.91
151.1,-1.23459,1902.16
151.2,-1.23416,1903.37
151.3,-1.23373,1904.56
151.4,-1.23339,1905.88
151.5,-1.23305,1907.07
151.6,-1.23262,1908.35
151.7,-1.23228,1909.61
151.8,-1.23185,1910.84
151.9,-1.23143,1912.18
152,-1.231,1913.41
152.1,-1.23066,1914.63
152.2,-1.23032,1915.96
152.3,-1.22981,1917.15
152.4,-1.22946,1918.42
152.5,-1.22912,1919.68
152.6,-1.2287,1920.94
152.7,-1.22835,1922.21
152.8,-1.22793,1923.44
152.9,-1.2275,1924.72
153,-1.22716,1925.96
153.1,-1.22673,1927.11
153.2,-1.22639,1928.44
153.3,-1.22596,1929.72
153.4,-1.22562,1930.95
153.5,-1.2252,1932.17
153.6,-1.22477,1933.38
153.7,-1.22443,1934.76
153.8,-1.224,1935.92
153.9,-1.22357,1937.23
154,-1.22323,1938.44
154.1,-1.2228,1939.69
154.2,-1.22246,1940.97
154.3,-1.22204,1942.33
154.4,-1.22169,1943.51
154.5,-1.22127,1944.79
154.6,-1.22084,1946.02
154.7,-1.2205,1947.30
154.8,-1.22007,1948.55
154.9,-1.21973,1949.79
155,-1.2193,1950.99
155.1,-1.21888,1952.14
155.2,-1.21854,1953.49
155.3,-1.21811,1954.68
155.4,-1.21777,1955.91
155.5,-1.21743,1957.28
155.6,-1.217,1958.40
155.7,-1.21657,1959.73
155.8,-1.21623,1960.95
155.9,-1.2158,1962.23
156,-1.21546,1963.53
156.1,-1.21504,1964.77
156.2,-1.21461,1966.04
156.3,-1.21427,1967.34
156.4,-1.21384,1968.52
156.5,-1.2135,1969.82
156.6,-1.21307,1971.07
156.7,-1.21264,1972.31
156.8,-1.2123,1973.55
156.9,-1.21188,1974.75
157,-1.21153,1976.06
157.1,-1.21111,1977.29
157.2,-1.21068,1978.58
157.3,-1.21034,1979.78
157.4,-1.20991,1980.95
157.5,-1.20957,1982.32
157.6,-1.20914,1983.43
157.7,-1.2088,1984.70
157.8,-1.20846,1986.06
157.9,-1.20795,1987.25
158,-1.20761,1988.61
158.1,-1.20718,1989.79
158.2,-1.20675,1990.99
158.3,-1.20641,1992.37
158.4,-1.20598,1993.53
158.5,-1.20564,1994.86
158.6,-1.2053,1996.13
158.7,-1.20488,1997.34
158.8,-1.20445,1998.66
158.9,-1.20402,1999.80
159,-1.20368,2001.10
159.1,-1.20334,2002.36
159.2,-1.20291,2003.58
159.3,-1.20257,2004.85
159.4,-1.20214,2006.09
159.5,-1.20172,2007.30
159.6,-1.20137,2008.50
159.7,-1.20095,2009.67
159.8,-1.20061,2011.05
159.9,-1.20018,2012.22
160,-1.19975,2013.52
160.1,-1.19941,2014.82
160.2,-1.19898,2016.04
160.3,-1.19856,2017.32
160.4,-1.19822,2018.62
160.5,-1.19779,2019.85
160.6,-1.19745,2021.14
160.7,-1.19702,2022.40
160.8,-1.19659,2023.66
160.9,-1.19625,2024.86
161,-1.19582,2026.10
161.1,-1.19548,2027.39
161.2,-1.19506,2028.61
161.3,-1.19463,2029.91
161.4,-1.19429,2031.10
161.5,-1.19386,2032.26
161.6,-1.19352,2033.66
161.7,-1.19309,2034.83
161.8,-1.19267,2036.14
161.9,-1.19232,2037.34
162,-1.1919,2038.55
162.1,-1.19156,2039.91
162.2,-1.19113,2041.11
162.3,-1.1907,2042.37
162.4,-1.19036,2043.64
162.5,-1.18993,2044.84
162.6,-1.18959,2046.17
162.7,-1.18916,2047.51
162.8,-1.18874,2048.70
162.9,-1.1884,2049.94
163,-1.18797,2051.22
163.1,-1.18763,2052.45
163.2,-1.1872,2053.66
163.3,-1.18686,2054.89
163.4,-1.18643,2056.16
163.5,-1.18601,2057.31
163.6,-1.18566,2058.66
163.7,-1.18532,2059.93
163.8,-1.18481,2061.12
163.9,-1.18447,2062.41
164,-1.18404,2063.58
164.1,-1.1837,2064.90
164.2,-1.18327,2066.20
164.3,-1.18285,2067.46
164.4,-1.18251,2068.73
164.5,-1.18208,2069.94
164.6,-1.18165,2071.21
164.7,-1.18131,2072.49
164.8,-1.18088,2073.73
164.9,-1.18054,2075.07
165,-1.18011,2076.23
165.1,-1.17969,2077.44
165.2,-1.17935,2078.79
165.3,-1.17892,2079.95
165.4,-1.17858,2081.22
165.5,-1.17815,2082.47
165.6,-1.17772,2083.62
165.7,-1.17738,2084.98
165.8,-1.17696,2086.12
165.9,-1.17661,2087.48
166,-1.17619,2088.68
166.1,-1.17585,2089.90
166.2,-1.17542,2091.25
166.3,-1.17499,2092.42
166.4,-1.17465,2093.77
166.5,-1.17422,2094.98
166.6,-1.1738,2096.24
166.7,-1.17346,2097.57
166.8,-1.17303,2098.78
166.9,-1.1726,2100.03
167,-1.17226,2101.31
167.1,-1.17183,2102.58
167.2,-1.17149,2103.78
167.3,-1.17106,2105.03
167.4,-1.17064,2106.20
167.5,-1.1703,2107.54
167.6,-1.16987,2108.72
167.7,-1.16953,2110.00
167.8,-1.1691,2111.24
167.9,-1.16876,2112.40
168,-1.16842,2113.75
168.1,-1.16791,2114.92
168.2,-1.16756,2116.20
168.3,-1.16722,2117.49
168.4,-1.16671,2118.71
168.5,-1.16637,2120.02
168.6,-1.16594,2121.25
168.7,-1.16552,2122.56
168.8,-1.16517,2123.81
168.9,-1.16475,2125.03
169,-1.16441,2126.36
169.1,-1.16398,2127.57
169.2,-1.16355,2128.83
169.3,-1.16321,2130.06
169.4,-1.16278,2131.32
169.5,-1.16244,2132.56
169.6,-1.16201,2133.78
169.7,-1.16159,2134.92
169.8,-1.16125,2136.30
169.9,-1.16082,2137.46
170,-1.16039,2138.82
170.1,-1.15997,2140.09
170.2,-1.15962,2141.25
170.3,-1.15928,2142.57
170.4,-1.15886,2143.84
170.5,-1.15843,2145.05
170.6,-1.15809,2146.32
170.7,-1.15766,2147.57
170.8,-1.15723,2148.82
170.9,-1.15689,2150.15
171,-1.15646,2151.34
171.1,-1.15612,2152.69
171.2,-1.15561,2153.83
171.3,-1.15527,2155.10
171.4,-1.15493,2156.40
171.5,-1.1545,2157.54
171.6,-1.15416,2158.85
171.7,-1.15373,2160.05
171.8,-1.15331,2161.31
171.9,-1.15288,2162.62
172,-1.15254,2163.77
172.1,-1.15211,2165.06
172.2,-1.15168,2166.34
172.3,-1.15134,2167.53
172.4,-1.151,2168.92
172.5,-1.15057,2170.07
172.6,-1.15015,2171.39
172.7,-1.14972,2172.68
172.8,-1.14929,2173.86
172.9,-1.14895,2175.21
173,-1.14852,2176.42
173.1,-1.14818,2177.67
173.2,-1.14776,2178.98
173.3,-1.14733,2180.18
173.4,-1.14699,2181.41
173.5,-1.14656,2182.65
173.6,-1.14622,2183.93
173.7,-1.14579,2185.21
173.8,-1.14537,2186.37
173.9,-1.14502,2187.65
174,-1.1446,2188.87
174.1,-1.14417,2190.07
174.2,-1.14383,2191.39
174.3,-1.1434,2192.59
174.4,-1.14306,2193.90
174.5,-1.14263,2195.18
174.6,-1.14221,2196.35
174.7,-1.14186,2197.72
174.8,-1.14144,2198.92
174.9,-1.14101,2200.26
175,-1.14067,2201.48
175.1,-1.14024,2202.73
175.2,-1.1399,2204.04
175.3,-1.13947,2205.21
175.4,-1.13905,2206.48
175.5,-1.13871,2207.75
175.6,-1.13828,2208.98
175.7,-1.13794,2210.23
175.8,-1.13751,2211.42
175.9,-1.13708,2212.61
176,-1.13674,2213.96
176.1,-1.13632,2215.07
176.2,-1.13597,2216.36
176.3,-1.13555,2217.66
176.4,-1.13512,2218.83
176.5,-1.13478,2220.17
176.6,-1.13435,2221.44
176.7,-1.13392,2222.60
176.8,-1.13358,2223.94
176.9,-1.13307,2225.14
177,-1.13273,2226.45
177.1,-1.1323,2227.73
177.2,-1.13196,2228.92
177.3,-1.13153,2230.30
177.4,-1.13111,2231.48
177.5,-1.13077,2232.74
177.6,-1.13034,2233.97
177.7,-1.12991,2235.20
177.8,-1.12957,2236.52
177.9,-1.12914,2237.69
178,-1.1288,2238.95
178.1,-1.12837,2240.19
178.2,-1.12795,2241.47
178.3,-1.12761,2242.72
178.4,-1.12718,2243.87
178.5,-1.12675,2245.26
178.6,-1.12641,2246.49
178.7,-1.12598,2247.73
178.8,-1.12564,2249.10
178.9,-1.12522,2250.25
179,-1.12479,2251.54
179.1,-1.12445,2252.82
179.2,-1.12394,2254.02
179.3,-1.12359,2255.35
179.4,-1.12317,2256.54
179.5,-1.12274,2257.83
179.6,-1.1224,2259.07
179.7,-1.12197,2260.19
179.8,-1.12163,2261.54
179.9,-1.1212,2262.72
180,-1.12078,2263.95
180.1,-1.12043,2265.30
180.2,-1.12001,2266.46
180.3,-1.11958,2267.75
180.4,-1.11924,2269.08
180.5,-1.11881,2270.22
180.6,-1.11847,2271.52
180.7,-1.11804,2272.78
180.8,-1.11762,2274.08
180.9,-1.11719,2275.35
181,-1.11676,2276.51
181.1,-1.11642,2277.87
181.2,-1.116,2279.12
181.3,-1.11557,2280.37
181.4,-1.11523,2281.60
181.5,-1.1148,2282.86
181.6,-1.11437,2284.07
181.7,-1.11403,2285.34
181.8,-1.1136,2286.48
181.9,-1.11326,2287.83
182,-1.11284,2289.08
182.1,-1.11241,2290.32
182.2,-1.11207,2291.62
182.3,-1.11164,2292.76
182.4,-1.11121,2294.02
182.5,-1.11079,2295.33
182.6,-1.11045,2296.49
182.7,-1.1101,2297.88
182.8,-1.10968,2299.12
182.9,-1.10925,2300.36
183,-1.10882,2301.66
183.1,-1.1084,2302.94
183.2,-1.10805,2304.16
183.3,-1.10763,2305.39
183.4,-1.1072,2306.65
183.5,-1.10686,2307.91
183.6,-1.10643,2309.14
183.7,-1.10609,2310.42
183.8,-1.10566,2311.60
183.9,-1.10524,2312.82
184,-1.1049,2314.12
184.1,-1.10447,2315.35
184.2,-1.10404,2316.56
184.3,-1.1037,2317.82
184.4,-1.10327,2318.98
184.5,-1.10293,2320.29
184.6,-1.10242,2321.55
184.7,-1.10208,2322.84
184.8,-1.10165,2324.11
184.9,-1.10122,2325.30
185,-1.10088,2326.66
185.1,-1.10046,2327.86
185.2,-1.10003,2329.17
185.3,-1.09969,2330.44
185.4,-1.09918,2331.64
185.5,-1.09883,2332.88
185.6,-1.09849,2334.23
185.7,-1.09798,2335.37
185.8,-1.09764,2336.73
185.9,-1.0973,2337.91
186,-1.09687,2339.14
186.1,-1.09653,2340.45
186.2,-1.09602,2341.58
186.3,-1.09567,2342.87
186.4,-1.09525,2344.12
186.5,-1.09482,2345.32
186.6,-1.09448,2346.68
186.7,-1.09405,2347.86
186.8,-1.09363,2349.21
186.9,-1.09328,2350.43
187,-1.09286,2351.68
187.1,-1.09252,2352.98
187.2,-1.09209,2354.23
187.3,-1.09166,2355.45
187.4,-1.09132,2356.75
187.5,-1.09081,2357.91
187.6,-1.09047,2359.30
187.7,-1.09004,2360.47
187.8,-1.0897,2361.63
187.9,-1.08927,2363.03
188,-1.08893,2364.10
188.1,-1.0885,2365.46
188.2,-1.08808,2366.69
188.3,-1.08765,2367.86
188.4,-1.08731,2369.26
188.5,-1.08688,2370.40
188.6,-1.08645,2371.73
188.7,-1.08611,2372.97
188.8,-1.08569,2374.21
188.9,-1.08526,2375.54
189,-1.08492,2376.74
189.1,-1.08449,2377.93
189.2,-1.08406,2379.33
189.3,-1.08364,2380.44
189.4,-1.08329,2381.83
189.5,-1.08287,2383.02
189.6,-1.08244,2384.22
189.7,-1.0821,2385.57
189.8,-1.08167,2386.75
189.9,-1.08125,2388.03
190,-1.0809,2389.30
190.1,-1.08048,2390.48
190.2,-1.08014,2391.71
190.3,-1.07962,2392.94
190.4,-1.07928,2394.25
190.5,-1.07894,2395.47
190.6,-1.07843,2396.66
190.7,-1.07809,2398.05
190.8,-1.07766,2399.23
190.9,-1.07723,2400.53
191,-1.07689,2401.82
191.1,-1.07646,2403.02
191.2,-1.07612,2404.37
191.3,-1.07561,2405.56
191.4,-1.07527,2406.79
191.5,-1.07484,2408.12
191.6,-1.07442,2409.27
191.7,-1.07399,2410.58
191.8,-1.07365,2411.80
191.9,-1.07322,2412.97
192,-1.07288,2414.34
192.1,-1.07245,2415.48
192.2,-1.07202,2416.78
192.3,-1.07168,2418.06
192.4,-1.07117,2419.17
192.5,-1.07083,2420.51
192.6,-1.0704,2421.71
192.7,-1.06998,2422.92
192.8,-1.06963,2424.29
192.9,-1.06921,2425.45
193,-1.06878,2426.77
193.1,-1.06835,2428.03
193.2,-1.06793,2429.27
193.3,-1.06758,2430.62
193.4,-1.06716,2431.80
193.5,-1.06673,2433.09
193.6,-1.06639,2434.38
193.7,-1.06596,2435.57
193.8,-1.06554,2436.90
193.9,-1.06519,2438.11
194,-1.06468,2439.33
194.1,-1.06434,2440.64
194.2,-1.06391,2441.76
194.3,-1.06357,2443.01
194.4,-1.06315,2444.33
194.5,-1.06272,2445.49
194.6,-1.06229,2446.82
194.7,-1.06195,2448.03
194.8,-1.06152,2449.33
194.9,-1.06118,2450.61
195,-1.06067,2451.83
195.1,-1.06033,2453.09
195.2,-1.0599,2454.40
195.3,-1.05947,2455.58
195.4,-1.05913,2456.95
195.5,-1.05871,2458.14
195.6,-1.05828,2459.38
195.7,-1.05794,2460.68
195.8,-1.05742,2461.89
195.9,-1.05708,2463.14
196,-1.05674,2464.30
196.1,-1.05623,2465.52
196.2,-1.05589,2466.91
196.3,-1.05546,2468.09
196.4,-1.05503,2469.36
196.5,-1.05469,2470.65
196.6,-1.05427,2471.79
196.7,-1.05384,2473.15
196.8,-1.05341,2474.40
196.9,-1.05307,2475.64
197,-1.05264,2476.93
197.1,-1.05222,2478.09
197.2,-1.05179,2479.45
197.3,-1.05136,2480.73
197.4,-1.05094,2481.85
197.5,-1.05059,2483.22
197.6,-1.05017,2484.51
197.7,-1.04983,2485.66
197.8,-1.0494,2486.99
197.9,-1.04897,2488.23
198,-1.04863,2489.38
198.1,-1.0482,2490.68
198.2,-1.04778,2491.90
198.3,-1.04744,2493.15
198.4,-1.04701,2494.43
198.5,-1.04658,2495.62
198.6,-1.04615,2496.91
198.7,-1.04573,2498.18
198.8,-1.04539,2499.35
198.9,-1.04496,2500.70
199,-1.04453,2501.92
199.1,-1.04419,2503.21
199.2,-1.04368,2504.44
199.3,-1.04334,2505.79
199.4,-1.04291,2506.99
199.5,-1.04248,2508.20
199.6,-1.04214,2509.54
199.7,-1.04171,2510.75
199.8,-1.04129,2511.92
199.9,-1.04095,2513.24
200,-1.04043,2514.43
200.1,-1.04009,2515.72
200.2,-1.03967,2516.95
200.3,-1.03932,2518.18
200.4,-1.0389,2519.44
200.5,-1.03847,2520.61
200.6,-1.03813,2521.93
200.7,-1.0377,2523.11
200.8,-1.03719,2524.38
200.9,-1.03693,2525.71
201,-1.03642,2526.92
201.1,-1.03599,2528.27
201.2,-1.03565,2529.47
201.3,-1.03514,2530.68
201.4,-1.03488,2532.01
201.5,-1.03437,2533.25
201.6,-1.03403,2534.49
201.7,-1.0336,2535.84
201.8,-1.03318,2536.93
201.9,-1.03284,2538.32
202,-1.03241,2539.52
202.1,-1.03198,2540.67
202.2,-1.03164,2541.99
202.3,-1.03121,2543.17
202.4,-1.03079,2544.52
202.5,-1.03036,2545.74
202.6,-1.03002,2546.97
202.7,-1.02959,2548.28
202.8,-1.02916,2549.45
202.9,-1.02874,2550.78
203,-1.0284,2552.08
203.1,-1.02788,2553.24
203.2,-1.02754,2554.60
203.3,-1.02711,2555.82
203.4,-1.02669,2557.07
203.5,-1.02635,2558.33
203.6,-1.02583,2559.57
203.7,-1.02549,2560.83
203.8,-1.02515,2562.12
203.9,-1.02464,2563.27
204,-1.0243,2564.61
204.1,-1.02396,2565.71
204.2,-1.02344,2567.05
204.3,-1.0231,2568.28
204.4,-1.02268,2569.49
204.5,-1.02225,2570.84
204.6,-1.02182,2571.96
204.7,-1.02148,2573.21
204.8,-1.02105,2574.61
204.9,-1.02063,2575.83
205,-1.0202,2577.08
205.1,-1.01986,2578.40
205.2,-1.01943,2579.54
205.3,-1.019,2580.94
205.4,-1.01858,2582.02
205.5,-1.01815,2583.43
205.6,-1.01781,2584.69
205.7,-1.01738,2585.82
205.8,-1.01704,2587.19
205.9,-1.01653,2588.35
206,-1.01619,2589.60
206.1,-1.01576,2590.90
206.2,-1.01533,2592.03
206.3,-1.01499,2593.35
206.4,-1.01456,2594.62
206.5,-1.01414,2595.79
206.6,-1.0138,2597.13
206.7,-1.01328,2598.22
206.8,-1.01286,2599.63
206.9,-1.01252,2600.81
207,-1.01209,2602.08
207.1,-1.01166,2603.48
207.2,-1.01123,2604.70
207.3,-1.01081,2605.91
207.4,-1.01047,2607.24
207.5,-1.00995,2608.37
207.6,-1.00961,2609.76
207.7,-1.00919,2610.96
207.8,-1.00876,2612.13
207.9,-1.00842,2613.38
208,-1.0079,2614.59
208.1,-1.00756,2615.91
208.2,-1.00714,2617.10
208.3,-1.00679,2618.29
208.4,-1.00637,2619.64
208.5,-1.00594,2620.81
208.6,-1.00551,2622.05
208.7,-1.00517,2623.37
208.8,-1.00466,2624.53
208.9,-1.00432,2625.92
209,-1.00389,2627.20
209.1,-1.00346,2628.34
209.2,-1.00304,2629.69
209.3,-1.00261,2630.83
209.4,-1.00227,2632.17
209.5,-1.00184,2633.42
209.6,-1.00133,2634.64
209.7,-1.00107,2635.97
209.8,-1.00056,2637.17
209.9,-1.00014,2638.47
210,-0.99979,2639.70
210.1,-0.99937,2640.85
210.2,-0.99903,2642.18
210.3,-0.9986,2643.44
210.4,-0.99817,2644.55
210.5,-0.99774,2645.97
210.6,-0.99732,2647.09
210.7,-0.99689,2648.41
210.8,-0.99655,2649.71
210.9,-0.99604,2650.87
211,-0.9957,2652.25
211.1,-0.99527,2653.46
211.2,-0.99484,2654.72
211.3,-0.99441,2656.05
211.4,-0.99399,2657.16
211.5,-0.99365,2658.55
211.6,-0.99322,2659.77
211.7,-0.99279,2660.95
211.8,-0.99245,2662.31
211.9,-0.99194,2663.45
212,-0.9916,2664.64
212.1,-0.99117,2665.94
212.2,-0.99066,2667.14
212.3,-0.9904,2668.45
212.4,-0.98997,2669.76
212.5,-0.98946,2670.85
212.6,-0.98912,2672.23
212.7,-0.98869,2673.54
212.8,-0.98827,2674.67
212.9,-0.98793,2676.08
213,-0.98741,2677.20
213.1,-0.98707,2678.55
213.2,-0.98665,2679.79
213.3,-0.98613,2680.97
213.4,-0.98579,2682.33
213.5,-0.98536,2683.55
213.6,-0.98502,2684.85
213.7,-0.9846,2686.04
213.8,-0.98417,2687.28
213.9,-0.98374,2688.53
214,-0.9834,2689.79
214.1,-0.98297,2690.96
214.2,-0.98255,2692.31
214.3,-0.98212,2693.41
214.4,-0.98169,2694.77
214.5,-0.98135,2696.03
214.6,-0.98084,2697.17
214.7,-0.9805,2698.56
214.8,-0.98007,2699.74
214.9,-0.97964,2701.00
215,-0.97922,2702.38
215.1,-0.97879,2703.52
215.2,-0.97836,2704.85
215.3,-0.97802,2706.19
215.4,-0.97751,2707.30
215.5,-0.97717,2708.66
215.6,-0.97674,2709.81
215.7,-0.97631,2711.10
215.8,-0.97597,2712.34
215.9,-0.97546,2713.57
216,-0.97512,2714.87
216.1,-0.97469,2716.05
216.2,-0.97427,2717.28
216.3,-0.97392,2718.48
216.4,-0.9735,2719.77
216.5,-0.97307,2721.01
216.6,-0.97264,2722.32
216.7,-0.97222,2723.41
216.8,-0.97187,2724.85
216.9,-0.97136,2726.00
217,-0.97102,2727.29
217.1,-0.97059,2728.61
217.2,-0.97017,2729.76
217.3,-0.96974,2731.12
217.4,-0.96931,2732.40
217.5,-0.96889,2733.57
217.6,-0.96854,2734.92
217.7,-0.96812,2736.13
217.8,-0.96769,2737.32
217.9,-0.96726,2738.62
218,-0.96684,2739.80
218.1,-0.9665,2741.07
218.2,-0.96607,2742.31
218.3,-0.96564,2743.55
218.4,-0.9653,2744.92
218.5,-0.96479,2746.07
218.6,-0.96436,2747.39
218.7,-0.96402,2748.60
218.8,-0.96359,2749.84
218.9,-0.96317,2751.21
219,-0.96274,2752.34
219.1,-0.96231,2753.65
219.2,-0.96189,2755.00
219.3,-0.96146,2756.03
219.4,-0.96112,2757.44
219.5,-0.96069,2758.72
219.6,-0.96018,2759.80
219.7,-0.95984,2761.18
219.8,-0.95941,2762.42
219.9,-0.95898,2763.54
220,-0.95864,2764.89
220.1,-0.95821,2766.07
220.2,-0.95779,2767.36
220.3,-0.95736,2768.70
220.4,-0.95693,2769.77
220.5,-0.95659,2771.15
220.6,-0.95616,2772.40
220.7,-0.95565,2773.61
220.8,-0.95531,2774.99
220.9,-0.95488,2776.14
221,-0.95446,2777.47
221.1,-0.95403,2778.77
221.2,-0.9536,2779.85
221.3,-0.95318,2781.26
221.4,-0.95283,2782.50
221.5,-0.95232,2783.68
221.6,-0.95207,2785.00
221.7,-0.95155,2786.19
221.8,-0.95113,2787.46
221.9,-0.95079,2788.71
222,-0.95036,2789.90
222.1,-0.94993,2791.19
222.2,-0.94951,2792.44
222.3,-0.94908,2793.64
222.4,-0.94874,2794.95
222.5,-0.94822,2796.13
222.6,-0.9478,2797.44
222.7,-0.94746,2798.69
222.8,-0.94703,2799.94
222.9,-0.9466,2801.29
223,-0.94618,2802.41
223.1,-0.94575,2803.74
223.2,-0.94541,2805.10
223.3,-0.94489,2806.23
223.4,-0.94447,2807.55
223.5,-0.94413,2808.81
223.6,-0.9437,2809.99
223.7,-0.94327,2811.32
223.8,-0.94285,2812.57
223.9,-0.94242,2813.73
224,-0.94208,2814.96
224.1,-0.94165,2816.20
224.2,-0.94122,2817.39
224.3,-0.9408,2818.73
224.4,-0.94037,2819.86
224.5,-0.93994,2821.19
224.6,-0.93952,2822.49
224.7,-0.93909,2823.62
224.8,-0.93866,2824.97
224.9,-0.93832,2826.29
225,-0.93781,2827.46
225.1,-0.93747,2828.78
225.2,-0.93704,2830.07
225.3,-0.93653,2831.25
225.4,-0.93619,2832.57
225.5,-0.93576,2833.71
225.6,-0.93533,2835.04
225.7,-0.93491,2836.32
225.8,-0.93448,2837.47
225.9,-0.93405,2838.79
226,-0.93371,2840.05
226.1,-0.9332,2841.14
226.2,-0.93286,2842.55
226.3,-0.93243,2843.71
226.4,-0.932,2844.99
226.5,-0.93158,2846.36
226.6,-0.93115,2847.52
226.7,-0.93072,2848.78
226.8,-0.93029,2850.08
226.9,-0.92987,2851.26
227,-0.92944,2852.61
227.1,-0.92901,2853.86
227.2,-0.92859,2855.05
227.3,-0.92825,2856.35
227.4,-0.92782,2857.58
227.5,-0.92731,2858.92
227.6,-0.92696,2860.08
227.7,-0.92645,2861.26
227.8,-0.92611,2862.52
227.9,-0.92568,2863.82
228,-0.92526,2864.95
228.1,-0.92492,2866.30
228.2,-0.92449,2867.49
228.3,-0.92398,2868.80
228.4,-0.92364,2870.11
228.5,-0.92321,2871.29
228.6,-0.92278,2872.58
228.7,-0.92235,2873.92
228.8,-0.92184,2875.04
228.9,-0.9215,2876.39
229,-0.92107,2877.65
229.1,-0.92065,2878.90
229.2,-0.92022,2880.18
229.3,-0.91979,2881.35
229.4,-0.91937,2882.59
229.5,-0.91902,2883.93
229.6,-0.9186,2885.13
229.7,-0.91817,2886.36
229.8,-0.91774,2887.64
229.9,-0.91732,2888.76
230,-0.91689,2890.07
230.1,-0.91646,2891.33
230.2,-0.91604,2892.47
230.3,-0.91569,2893.89
230.4,-0.91527,2895.06
230.5,-0.91484,2896.32
230.6,-0.91441,2897.68
230.7,-0.9139,2898.88
230.8,-0.91356,2900.20
230.9,-0.91313,2901.52
231,-0.91271,2902.68
231.1,-0.91228,2903.99
231.2,-0.91185,2905.18
231.3,-0.91143,2906.42
231.4,-0.911,2907.80
231.5,-0.91057,2908.74
231.6,-0.91023,2910.16
231.7,-0.9098,2911.44
231.8,-0.90938,2912.61
231.9,-0.90904,2913.85
232,-0.90852,2915.05
232.1,-0.9081,2916.33
232.2,-0.90775,2917.61
232.3,-0.90733,2918.83
232.4,-0.9069,2920.11
232.5,-0.90647,2921.41
232.6,-0.90596,2922.55
232.7,-0.90562,2923.96
232.8,-0.90519,2925.11
232.9,-0.90477,2926.46
233,-0.90434,2927.74
233.1,-0.90383,2928.94
233.2,-0.90349,2930.19
233.3,-0.90306,2931.49
233.4,-0.90255,2932.65
233.5,-0.9022,2933.98
233.6,-0.90178,2935.19
233.7,-0.90135,2936.41
233.8,-0.90101,2937.67
233.9,-0.9005,2938.86
234,-0.90016,2940.13
234.1,-0.89973,2941.55
234.2,-0.89922,2942.59
234.3,-0.89887,2944.01
234.4,-0.89845,2945.16
234.5,-0.89794,2946.40
234.6,-0.89759,2947.81
234.7,-0.89717,2948.94
234.8,-0.89674,2950.24
234.9,-0.89631,2951.58
235,-0.89589,2952.66
235.1,-0.89546,2954.02
235.2,-0.89503,2955.28
235.3,-0.89461,2956.51
235.4,-0.89426,2957.75
235.5,-0.89384,2958.93
235.6,-0.89333,2960.14
235.7,-0.89298,2961.56
235.8,-0.89256,2962.64
235.9,-0.89213,2963.95
236,-0.8917,2965.28
236.1,-0.89128,2966.37
236.2,-0.89085,2967.82
236.3,-0.89042,2969.00
236.4,-0.88991,2970.22
236.5,-0.88957,2971.62
236.6,-0.88914,2972.66
236.7,-0.88871,2974.02
236.8,-0.88829,2975.37
236.9,-0.88786,2976.51
237,-0.88743,2977.83
237.1,-0.88709,2979.15
237.2,-0.88658,2980.20
237.3,-0.88615,2981.58
237.4,-0.88581,2982.82
237.5,-0.8853,2983.93
237.6,-0.88496,2985.27
237.7,-0.88453,2986.47
237.8,-0.8841,2987.68
237.9,-0.88368,2989.05
238,-0.88317,2990.20
238.1,-0.88282,2991.48
238.2,-0.8824,2992.79
238.3,-0.88188,2993.99
238.4,-0.88163,2995.30
238.5,-0.88112,2996.57
238.6,-0.88069,2997.82
238.7,-0.88035,2999.17
238.8,-0.87984,3000.33
238.9,-0.87941,3001.65
239,-0.87898,3002.92
239.1,-0.87855,3004.01
239.2,-0.87821,3005.39
239.3,-0.87779,3006.51
239.4,-0.87736,3007.77
239.5,-0.87693,3009.11
239.6,-0.87651,3010.29
239.7,-0.87608,3011.44
239.8,-0.87574,3012.79
239.9,-0.87522,3014.00
240,-0.8748,3015.26
240.1,-0.87437,3016.55
240.2,-0.87386,3017.75
240.3,-0.87352,3019.16
240.4,-0.87309,3020.26
240.5,-0.87258,3021.63
240.6,-0.87224,3022.83
240.7,-0.87181,3024.10
240.8,-0.87138,3025.40
240.9,-0.87096,3026.63
241,-0.87044,3027.83
241.1,-0.8701,3029.17
241.2,-0.86968,3030.36
241.3,-0.86916,3031.56
241.4,-0.86882,3032.90
241.5,-0.86839,3034.01
241.6,-0.86797,3035.25
241.7,-0.86754,3036.63
241.8,-0.86711,3037.76
241.9,-0.86669,3039.20
242,-0.86626,3040.37
242.1,-0.86583,3041.59
242.2,-0.86549,3042.93
242.3,-0.86498,3044.11
242.4,-0.86455,3045.41
242.5,-0.86413,3046.71
242.6,-0.8637,3047.94
242.7,-0.86327,3049.24
242.8,-0.86284,3050.39
242.9,-0.86233,3051.59
243,-0.86199,3052.97
243.1,-0.86156,3054.10
243.2,-0.86114,3055.40
243.3,-0.8608,3056.59
243.4,-0.86028,3057.83
243.5,-0.85986,3059.13
243.6,-0.85952,3060.44
243.7,-0.859,3061.52
243.8,-0.85858,3062.95
243.9,-0.85823,3064.18
244,-0.85772,3065.38
244.1,-0.85738,3066.73
244.2,-0.85687,3067.90
244.3,-0.85644,3069.21
244.4,-0.8561,3070.46
244.5,-0.85559,3071.77
244.6,-0.85516,3072.99
244.7,-0.85473,3074.25
244.8,-0.85431,3075.46
244.9,-0.85397,3076.78
245,-0.85345,3077.92
245.1,-0.85303,3079.19
245.2,-0.85268,3080.43
245.3,-0.85217,3081.62
245.4,-0.85183,3082.96
245.5,-0.8514,3084.13
245.6,-0.85089,3085.32
245.7,-0.85055,3086.74
245.8,-0.85004,3087.90
245.9,-0.8497,3089.13
246,-0.84927,3090.48
246.1,-0.84876,3091.67
246.2,-0.84842,3093.05
246.3,-0.8479,3094.27
246.4,-0.84748,3095.41
246.5,-0.84713,3096.83
246.6,-0.84662,3098.02
246.7,-0.8462,3099.30
246.8,-0.84585,3100.52
246.9,-0.84534,3101.72
247,-0.845,3103.05
247.1,-0.84457,3104.21
247.2,-0.84406,3105.34
247.3,-0.84372,3106.68
247.4,-0.84329,3107.81
247.5,-0.84287,3109.15
247.6,-0.84244,3110.48
247.7,-0.84193,3111.63
247.8,-0.84159,3112.96
247.9,-0.84116,3114.22
248,-0.84065,3115.43
248.1,-0.8403,3116.84
248.2,-0.83988,3118.04
248.3,-0.83945,3119.21
248.4,-0.83902,3120.58
248.5,-0.8386,3121.79
248.6,-0.83817,3123.09
248.7,-0.83774,3124.33
248.8,-0.83723,3125.42
248.9,-0.83689,3126.82
249,-0.83646,3127.99
249.1,-0.83604,3129.18
249.2,-0.83561,3130.59
249.3,-0.83518,3131.63
249.4,-0.83475,3132.94
249.5,-0.83433,3134.31
249.6,-0.8339,3135.48
249.7,-0.83347,3136.81
249.8,-0.83305,3138.08
249.9,-0.83254,3139.25
250,-0.83219,3140.67
250.1,-0.83177,3141.82
250.2,-0.83134,3143.04
250.3,-0.83091,3144.41
250.4,-0.83049,3145.57
250.5,-0.83006,3146.85
250.6,-0.82963,3148.10
250.7,-0.82912,3149.28
250.8,-0.82878,3150.63
250.9,-0.82835,3151.80
251,-0.82792,3152.96
251.1,-0.8275,3154.32
251.2,-0.82707,3155.51
251.3,-0.82664,3156.84
251.4,-0.82622,3158.13
251.5,-0.8257,3159.20
251.6,-0.82536,3160.65
251.7,-0.82494,3161.85
251.8,-0.82442,3163.05
251.9,-0.82408,3164.45
252,-0.82357,3165.60
252.1,-0.82314,3166.95
252.2,-0.82272,3168.21
252.3,-0.82229,3169.36
252.4,-0.82195,3170.69
252.5,-0.82144,3171.89
252.6,-0.82101,3173.12
252.7,-0.82058,3174.44
252.8,-0.82016,3175.48
252.9,-0.81973,3176.86
253,-0.81939,3178.14
253.1,-0.81887,3179.25
253.2,-0.81853,3180.62
253.3,-0.81802,3181.83
253.4,-0.81759,3183.08
253.5,-0.81725,3184.46
253.6,-0.81674,3185.54
253.7,-0.81631,3186.88
253.8,-0.81589,3188.20
253.9,-0.81546,3189.39
254,-0.81503,3190.75
254.1,-0.81461,3191.88
254.2,-0.81409,3193.17
254.3,-0.81375,3194.48
254.4,-0.81332,3195.68
254.5,-0.8129,3197.02
254.6,-0.81247,3198.11
254.7,-0.81204,3199.34
254.8,-0.81162,3200.67
254.9,-0.81119,3201.79
255,-0.81068,3202.99
255.1,-0.81034,3204.42
255.2,-0.80982,3205.56
255.3,-0.80948,3206.77
255.4,-0.80906,3208.16
255.5,-0.80854,3209.34
255.6,-0.80812,3210.72
255.7,-0.80769,3211.92
255.8,-0.80726,3213.18
255.9,-0.80684,3214.56
256,-0.80641,3215.60
256.1,-0.80598,3216.94
256.2,-0.80556,3218.30
256.3,-0.80513,3219.39
256.4,-0.8047,3220.77
256.5,-0.80427,3221.95
256.6,-0.80385,3223.00
256.7,-0.80342,3224.48
256.8,-0.80299,3225.64
256.9,-0.80257,3226.88
257,-0.80214,3228.24
257.1,-0.80171,3229.41
257.2,-0.80129,3230.77
257.3,-0.80086,3231.94
257.4,-0.80035,3233.16
257.5,-0.80001,3234.52
257.6,-0.79949,3235.74
257.7,-0.79907,3236.97
257.8,-0.79864,3238.36
257.9,-0.79821,3239.45
258,-0.79779,3240.77
258.1,-0.79736,3242.05
258.2,-0.79693,3243.22
258.3,-0.79651,3244.54
258.4,-0.79608,3245.68
258.5,-0.79565,3246.91
258.6,-0.79522,3248.31
258.7,-0.7948,3249.44
258.8,-0.79437,3250.64
258.9,-0.79394,3252.00
259,-0.79343,3253.17
259.1,-0.79309,3254.56
259.2,-0.79266,3255.74
259.3,-0.79215,3256.96
259.4,-0.79181,3258.30
259.5,-0.7913,3259.50
259.6,-0.79087,3260.84
259.7,-0.79044,3262.14
259.8,-0.79002,3263.26
259.9,-0.78959,3264.56
260,-0.78916,3265.84
260.1,-0.78874,3267.02
260.2,-0.78831,3268.37
260.3,-0.78788,3269.48
260.4,-0.78745,3270.72
260.5,-0.78703,3272.08
260.6,-0.7866,3273.16
260.7,-0.78617,3274.57
260.8,-0.78575,3275.74
260.9,-0.78523,3276.91
261,-0.78489,3278.31
261.1,-0.78447,3279.51
261.2,-0.78395,3280.72
261.3,-0.78353,3282.25
261.4,-0.7831,3283.22
261.5,-0.78267,3284.55
261.6,-0.78225,3285.92
261.7,-0.78182,3287.10
261.8,-0.78139,3288.43
261.9,-0.78097,3289.57
262,-0.78045,3290.81
262.1,-0.78011,3292.13
262.2,-0.77969,3293.22
262.3,-0.77926,3294.53
262.4,-0.77883,3295.78
262.5,-0.7784,3296.86
262.6,-0.77789,3298.31
262.7,-0.77755,3299.51
262.8,-0.77704,3300.66
262.9,-0.7767,3302.09
263,-0.77618,3303.27
263.1,-0.77576,3304.51
263.2,-0.77542,3305.92
263.3,-0.7749,3307.06
263.4,-0.77448,3308.34
263.5,-0.77405,3309.71
263.6,-0.77362,3310.90
263.7,-0.77311,3312.20
263.8,-0.77277,3313.37
263.9,-0.77226,3314.57
264,-0.77192,3315.93
264.1,-0.77149,3317.10
264.2,-0.77098,3318.17
264.3,-0.77063,3319.63
264.4,-0.77012,3320.80
264.5,-0.7697,3322.07
264.6,-0.76927,3323.42
264.7,-0.76884,3324.59
264.8,-0.76842,3325.87
264.9,-0.76799,3327.11
265,-0.76748,3328.35
265.1,-0.76713,3329.71
265.2,-0.76662,3330.92
265.3,-0.7662,3332.14
265.4,-0.76577,3333.46
265.5,-0.76534,3334.61
265.6,-0.76491,3335.90
265.7,-0.76449,3337.23
265.8,-0.76398,3338.36
265.9,-0.76363,3339.75
266,-0.76321,3340.80
266.1,-0.76269,3342.01
266.2,-0.76235,3343.44
266.3,-0.76184,3344.57
266.4,-0.76141,3345.92
266.5,-0.76107,3347.18
266.6,-0.76056,3348.38
266.7,-0.76013,3349.74
266.8,-0.75971,3350.89
266.9,-0.75919,3352.11
267,-0.75885,3353.52
267.1,-0.75834,3354.66
267.2,-0.75791,3356.01
267.3,-0.75757,3357.29
267.4,-0.75706,3358.40
267.5,-0.75663,3359.76
267.6,-0.75621,3360.95
267.7,-0.75578,3362.17
267.8,-0.75535,3363.51
267.9,-0.75493,3364.63
268,-0.7545,3365.89
268.1,-0.75407,3367.14
268.2,-0.75356,3368.36
268.3,-0.75322,3369.69
268.4,-0.75279,3370.91
268.5,-0.75228,3372.11
268.6,-0.75194,3373.42
268.7,-0.75142,3374.65
268.8,-0.751,3375.99
268.9,-0.75057,3377.31
269,-0.75006,3378.47
269.1,-0.74963,3379.84
269.2,-0.7492,3381.07
269.3,-0.74869,3382.16
269.4,-0.74835,3383.46
269.5,-0.74792,3384.74
269.6,-0.74741,3385.91
269.7,-0.74707,3387.29
269.8,-0.74664,3388.38
269.9,-0.74622,3389.68
270,-0.74579,3390.91
270.1,-0.74528,3392.08
270.2,-0.74485,3393.43
270.3,-0.74442,3394.70
270.4,-0.74391,3395.85
270.5,-0.74357,3397.26
270.6,-0.74314,3398.44
270.7,-0.74263,3399.68
270.8,-0.7422,3401.07
270.9,-0.74178,3402.26
271,-0.74135,3403.58
271.1,-0.74092,3404.79
271.2,-0.74041,3405.95
271.3,-0.73998,3407.34
271.4,-0.73964,3408.58
271.5,-0.73913,3409.66
271.6,-0.73879,3410.95
271.7,-0.73828,3412.18
271.8,-0.73785,3413.52
271.9,-0.73742,3414.78
272,-0.73691,3415.93
272.1,-0.73648,3417.35
272.2,-0.73614,3418.51
272.3,-0.73563,3419.76
272.4,-0.7352,3421.10
272.5,-0.73478,3422.21
272.6,-0.73435,3423.59
272.7,-0.73392,3424.89
272.8,-0.73341,3426.05
272.9,-0.73307,3427.37
273,-0.73256,3428.66
273.1,-0.73213,3429.75
273.2,-0.7317,3431.10
273.3,-0.73128,3432.24
273.4,-0.73085,3433.55
273.5,-0.73042,3434.79
273.6,-0.72991,3435.97
273.7,-0.72957,3437.36
273.8,-0.72914,3438.55
273.9,-0.72863,3439.75
274,-0.7282,3441.09
274.1,-0.72777,3442.28
274.2,-0.72726,3443.59
274.3,-0.72692,3444.92
274.4,-0.72641,3446.05
274.5,-0.72598,3447.38
274.6,-0.72555,3448.68
274.7,-0.72513,3449.90
274.8,-0.7247,3451.20
274.9,-0.72427,3452.39
275,-0.72376,3453.61
275.1,-0.72342,3454.90
275.2,-0.72291,3456.11
275.213,-0.72188,3424.68
275.214,-0.72094,3396.21
275.215,-0.71966,3357.30
275.216,-0.71821,3308.54
275.217,-0.71642,3250.92
275.218,-0.71428,3185.55
275.219,-0.71181,3113.47
275.22,-0.70908,3035.66
275.221,-0.70609,2952.96
275.222,-0.70276,2866.14
275.223,-0.69917,2775.88
275.224,-0.69533,2682.81
275.225,-0.69115,2587.53
275.226,-0.68662,2490.56
275.227,-0.68193,2392.42
275.228,-0.6768,2293.57
275.229,-0.67151,2194.45
275.23,-0.66587,2095.45
275.231,-0.65998,1996.94
